TITLE	cm13
DATA TYPE	
ORIGIN	JASCO
OWNER	
DATE	16/02/05
TIME	12:47:11
SPECTROMETER/DATA SYSTEM	
LOCALE	1033
RESOLUTION	
DELTAX	-0.5
XUNITS	NANOMETERS
YUNITS	CD [mdeg]
Y2UNITS	HT [V]
Y3UNITS	ABSORBANCE
FIRSTX	  750.0000
LASTX	  350.0000
NPOINTS	     801
FIRSTY	    -4.33155
MAXY	    23.57156
MINY	   -15.98768
XYDATA
750.0000	-4.33155	316.003	1.41897
749.5000	-4.22984	315.736	1.41623
749.0000	-4.0068	315.421	1.41299
748.5000	-3.96388	315.041	1.40909
748.0000	-4.02857	314.604	1.40459
747.5000	-3.96203	314.135	1.39975
747.0000	-3.9795	313.611	1.39435
746.5000	-4.00273	313.084	1.3889
746.0000	-4.08001	312.564	1.38352
745.5000	-4.00126	312.075	1.37846
745.0000	-3.91216	311.632	1.37387
744.5000	-3.91951	311.235	1.36975
744.0000	-3.88929	310.889	1.36615
743.5000	-3.75918	310.625	1.36341
743.0000	-3.67755	310.408	1.36116
742.5000	-3.68357	310.23	1.3593
742.0000	-3.62431	310.067	1.35761
741.5000	-3.56621	309.894	1.35581
741.0000	-3.49688	309.675	1.35353
740.5000	-3.43341	309.378	1.35043
740.0000	-3.36814	308.993	1.34642
739.5000	-3.2781	308.495	1.34122
739.0000	-3.26379	307.875	1.33474
738.5000	-3.39291	307.131	1.32696
738.0000	-3.43314	306.307	1.31832
737.5000	-3.47994	305.418	1.30897
737.0000	-3.61127	304.646	1.30085
736.5000	-3.63435	304.004	1.29408
736.0000	-3.66261	303.548	1.28927
735.5000	-3.53454	303.308	1.28673
735.0000	-3.48716	303.284	1.28647
734.5000	-3.51619	303.385	1.28755
734.0000	-3.56891	303.628	1.29011
733.5000	-3.49275	303.942	1.29343
733.0000	-3.56776	304.263	1.29681
732.5000	-3.62186	304.544	1.29978
732.0000	-3.68046	304.788	1.30234
731.5000	-3.57969	304.955	1.3041
731.0000	-3.46391	305.124	1.30588
730.5000	-3.44011	305.324	1.30798
730.0000	-3.43004	305.516	1.31
729.5000	-3.28838	305.692	1.31186
729.0000	-3.19871	305.849	1.31351
728.5000	-3.26505	305.925	1.31431
728.0000	-3.35959	305.95	1.31457
727.5000	-3.34495	305.961	1.31469
727.0000	-3.42944	305.923	1.31428
726.5000	-3.46119	305.831	1.31332
726.0000	-3.52782	305.69	1.31183
725.5000	-3.49776	305.429	1.30909
725.0000	-3.40744	305.176	1.30643
724.5000	-3.37923	304.923	1.30376
724.0000	-3.28589	304.62	1.30058
723.5000	-3.12088	304.283	1.29702
723.0000	-3.07055	303.91	1.29309
722.5000	-3.04768	303.407	1.28778
722.0000	-3.13127	302.957	1.28302
721.5000	-3.18397	302.501	1.2782
721.0000	-3.20467	302.04	1.27331
720.5000	-3.25422	301.587	1.26851
720.0000	-3.29493	301.117	1.26353
719.5000	-3.38777	300.569	1.2577
719.0000	-3.38091	300.163	1.25338
718.5000	-3.30181	299.784	1.24935
718.0000	-3.20683	299.428	1.24556
717.5000	-3.18102	299.107	1.24213
717.0000	-3.23237	298.731	1.23813
716.5000	-3.21107	298.449	1.23511
716.0000	-3.22691	298.307	1.23359
715.5000	-3.2159	298.243	1.23291
715.0000	-3.22162	298.272	1.23322
714.5000	-3.24442	298.377	1.23434
714.0000	-3.26697	298.493	1.23558
713.5000	-3.2314	298.802	1.23888
713.0000	-3.30016	299.165	1.24276
712.5000	-3.41638	299.548	1.24684
712.0000	-3.51934	299.951	1.25113
711.5000	-3.51918	300.258	1.2544
711.0000	-3.5929	300.579	1.25781
710.5000	-3.64693	300.949	1.26174
710.0000	-3.76234	301.298	1.26545
709.5000	-3.76977	301.619	1.26885
709.0000	-3.76804	301.883	1.27165
708.5000	-3.86982	302.095	1.2739
708.0000	-3.90913	302.399	1.27712
707.5000	-3.9802	302.699	1.2803
707.0000	-4.05927	302.979	1.28325
706.5000	-4.19787	303.204	1.28563
706.0000	-4.36697	303.365	1.28734
705.5000	-4.52399	303.635	1.29019
705.0000	-4.80724	303.936	1.29336
704.5000	-5.0244	304.245	1.29662
704.0000	-5.25243	304.53	1.29962
703.5000	-5.42946	304.781	1.30226
703.0000	-5.57834	305.158	1.30624
702.5000	-5.73665	305.599	1.31088
702.0000	-5.88037	306.067	1.31579
701.5000	-6.03272	306.544	1.32081
701.0000	-6.2623	307.002	1.3256
700.5000	-6.44866	307.597	1.33183
700.0000	-6.59363	308.295	1.33913
699.5000	-6.80398	309.061	1.34712
699.0000	-6.9944	309.864	1.35549
698.5000	-7.23306	310.665	1.36382
698.0000	-7.40537	311.654	1.37409
697.5000	-7.6063	312.777	1.38572
697.0000	-7.78809	313.953	1.39787
696.5000	-8.07463	315.114	1.40982
696.0000	-8.18471	316.318	1.4222
695.5000	-8.27659	317.704	1.43639
695.0000	-8.4658	319.221	1.45188
694.5000	-8.6224	320.817	1.46811
694.0000	-8.77096	322.375	1.4839
693.5000	-9.08408	323.99	1.5002
693.0000	-9.32186	325.84	1.51881
692.5000	-9.70504	327.835	1.53878
692.0000	-10.0281	329.935	1.55969
691.5000	-10.1328	332.009	1.58025
691.0000	-10.4804	334.239	1.60224
690.5000	-10.793	336.781	1.62717
690.0000	-11.1255	339.446	1.65313
689.5000	-11.4853	342.152	1.67933
689.0000	-11.8069	344.856	1.70533
688.5000	-12.2633	347.631	1.73183
688.0000	-12.7953	350.494	1.75898
687.5000	-13.1558	353.351	1.78588
687.0000	-13.4424	356.132	1.81189
686.5000	-13.7711	359.06	1.83907
686.0000	-14.0951	362.128	1.86733
685.5000	-14.3466	365.344	1.89672
685.0000	-14.8531	368.696	1.92709
684.5000	-14.9751	372.213	1.95867
684.0000	-15.3614	375.913	1.99158
683.5000	-15.736	379.823	2.026
683.0000	-15.7722	383.758	2.06028
682.5000	-15.8781	387.539	2.09288
682.0000	-15.9877	391.298	2.12495
681.5000	-15.8011	395.078	2.15685
681.0000	-15.6703	398.724	2.18731
680.5000	-15.353	402.118	2.21539
680.0000	-15.1279	405.225	2.24085
679.5000	-14.8501	408.187	2.2649
679.0000	-14.3492	411.13	2.2886
678.5000	-13.6406	413.784	2.30979
678.0000	-13.1875	416.091	2.32808
677.5000	-12.7361	418.161	2.34438
677.0000	-11.9087	420.112	2.35965
676.5000	-11.3321	421.832	2.37305
676.0000	-10.9066	423.105	2.38291
675.5000	-10.7012	424.034	2.39008
675.0000	-10.2571	424.686	2.39511
674.5000	-9.88867	425.03	2.39775
674.0000	-9.7139	424.846	2.39633
673.5000	-9.65769	424.26	2.39181
673.0000	-9.82354	423.365	2.38491
672.5000	-9.81499	422.19	2.37581
672.0000	-9.90984	420.526	2.36286
671.5000	-10.0449	418.488	2.34692
671.0000	-10.3971	416.138	2.32843
670.5000	-10.8065	413.553	2.30793
670.0000	-11.1101	410.5	2.28352
669.5000	-11.2899	407.087	2.25596
669.0000	-11.7138	403.474	2.2265
668.5000	-12.0843	399.738	2.1957
668.0000	-12.6974	395.702	2.16207
667.5000	-13.0354	391.511	2.12673
667.0000	-13.4333	387.29	2.09073
666.5000	-13.6799	383.152	2.05501
666.0000	-13.9244	378.876	2.01769
665.5000	-14.0033	374.472	1.97879
665.0000	-13.9421	370.132	1.94002
664.5000	-13.7455	365.938	1.90212
664.0000	-13.5954	361.657	1.863
663.5000	-13.2528	357.416	1.82383
663.0000	-12.8435	353.275	1.78517
662.5000	-12.5108	349.384	1.74848
662.0000	-12.0838	345.585	1.7123
661.5000	-11.6759	341.935	1.67722
661.0000	-11.1315	338.463	1.64357
660.5000	-10.6593	335.233	1.612
660.0000	-10.1436	332.062	1.58077
659.5000	-9.61924	329.096	1.55135
659.0000	-9.0401	326.314	1.52355
658.5000	-8.39628	323.715	1.49743
658.0000	-7.97766	321.188	1.47187
657.5000	-7.58846	318.855	1.44814
657.0000	-7.15594	316.728	1.4264
656.5000	-6.79996	314.702	1.40558
656.0000	-6.42683	312.782	1.38577
655.5000	-6.1195	310.996	1.36725
655.0000	-5.89612	309.398	1.35063
654.5000	-5.50524	307.847	1.33444
654.0000	-5.11783	306.413	1.31942
653.5000	-4.82468	305.109	1.30571
653.0000	-4.58357	303.962	1.29362
652.5000	-4.30529	302.873	1.28212
652.0000	-4.07929	301.897	1.27179
651.5000	-3.83271	301.083	1.26315
651.0000	-3.6771	300.374	1.25562
650.5000	-3.49932	299.745	1.24893
650.0000	-3.26898	299.233	1.24347
649.5000	-3.09553	298.857	1.23946
649.0000	-2.89229	298.534	1.23601
648.5000	-2.72645	298.289	1.23339
648.0000	-2.65149	298.112	1.23151
647.5000	-2.49334	298.015	1.23047
647.0000	-2.32946	297.94	1.22966
646.5000	-2.13195	297.896	1.22919
646.0000	-1.98632	297.888	1.2291
645.5000	-1.98509	297.888	1.22911
645.0000	-1.79014	297.905	1.22929
644.5000	-1.67827	297.945	1.22972
644.0000	-1.69936	298.001	1.23032
643.5000	-1.69845	298.042	1.23075
643.0000	-1.75303	298.087	1.23124
642.5000	-1.72254	298.157	1.23199
642.0000	-1.63696	298.222	1.23267
641.5000	-1.67168	298.286	1.23336
641.0000	-1.58946	298.339	1.23392
640.5000	-1.4125	298.391	1.23448
640.0000	-1.29906	298.446	1.23507
639.5000	-1.145	298.486	1.2355
639.0000	-1.12146	298.522	1.23588
638.5000	-1.07119	298.536	1.23603
638.0000	-0.875059	298.534	1.23601
637.5000	-0.801607	298.499	1.23563
637.0000	-0.717085	298.438	1.23498
636.5000	-0.605204	298.352	1.23407
636.0000	-0.457534	298.222	1.23268
635.5000	-0.27	298.07	1.23105
635.0000	-0.127908	297.894	1.22917
634.5000	0.0129486	297.673	1.22681
634.0000	0.069191	297.448	1.2244
633.5000	0.156853	297.216	1.22191
633.0000	0.245013	296.951	1.21907
632.5000	0.280694	296.666	1.21602
632.0000	0.31109	296.402	1.21318
631.5000	0.253236	296.13	1.21027
631.0000	0.260711	295.82	1.20694
630.5000	0.361023	295.549	1.20402
630.0000	0.331828	295.273	1.20106
629.5000	0.259322	294.987	1.19798
629.0000	0.24055	294.719	1.1951
628.5000	0.259426	294.461	1.19232
628.0000	0.289912	294.161	1.18908
627.5000	0.264764	293.903	1.1863
627.0000	0.176328	293.651	1.18358
626.5000	0.185785	293.361	1.18045
626.0000	0.166029	293.118	1.17783
625.5000	0.128735	292.881	1.17526
625.0000	0.156638	292.577	1.17198
624.5000	0.133868	292.337	1.16938
624.0000	0.116827	292.104	1.16685
623.5000	0.0653366	291.804	1.1636
623.0000	0.0570045	291.559	1.16094
622.5000	0.084642	291.313	1.15827
622.0000	0.0245308	290.999	1.15488
621.5000	-0.0385796	290.766	1.15234
621.0000	-0.073555	290.525	1.14973
620.5000	-0.0298347	290.233	1.14655
620.0000	-0.0163925	289.978	1.14378
619.5000	-0.0624718	289.699	1.14073
619.0000	-0.102496	289.356	1.137
618.5000	0.0355507	289.047	1.13363
618.0000	0.12636	288.696	1.1298
617.5000	0.199599	288.303	1.12552
617.0000	0.283036	287.938	1.12153
616.5000	0.315347	287.512	1.11687
616.0000	0.435294	287.077	1.1121
615.5000	0.527493	286.674	1.10769
615.0000	0.570795	286.218	1.10269
614.5000	0.596198	285.78	1.09789
614.0000	0.616071	285.348	1.09314
613.5000	0.741269	284.84	1.08756
613.0000	0.890735	284.403	1.08275
612.5000	0.973642	283.949	1.07774
612.0000	1.1341	283.449	1.07223
611.5000	1.22264	282.998	1.06725
611.0000	1.4221	282.51	1.06186
610.5000	1.50111	282.025	1.05649
610.0000	1.59598	281.58	1.05157
609.5000	1.66857	281.065	1.04586
609.0000	1.88148	280.602	1.04072
608.5000	2.06434	280.133	1.03551
608.0000	2.23742	279.623	1.02983
607.5000	2.42265	279.183	1.02494
607.0000	2.61238	278.712	1.0196
606.5000	2.74015	278.267	1.01423
606.0000	2.88288	277.874	1.0095
605.5000	2.97814	277.437	1.00424
605.0000	3.05609	277.071	0.999609
604.5000	3.2002	276.713	0.994964
604.0000	3.351	276.361	0.990405
603.5000	3.56853	276.087	0.986849
603.0000	3.79345	275.759	0.982596
602.5000	3.96889	275.483	0.97902
602.0000	4.15019	275.23	0.975734
601.5000	4.28409	274.969	0.972342
601.0000	4.37677	274.782	0.96992
600.5000	4.54663	274.553	0.966951
600.0000	4.65727	274.368	0.964551
599.5000	4.83012	274.23	0.962767
599.0000	5.05221	274.073	0.96072
598.5000	5.22927	273.984	0.959572
598.0000	5.36452	273.851	0.957848
597.5000	5.54479	273.748	0.956509
597.0000	5.61918	273.664	0.955427
596.5000	5.71731	273.563	0.954105
596.0000	5.7185	273.502	0.953321
595.5000	5.71335	273.403	0.95204
595.0000	5.80193	273.333	0.951128
594.5000	5.94017	273.268	0.950284
594.0000	6.07125	273.189	0.949266
593.5000	6.20062	273.131	0.948515
593.0000	6.26651	273.03	0.947193
592.5000	6.4197	272.96	0.946291
592.0000	6.47151	272.867	0.945085
591.5000	6.50176	272.771	0.943846
591.0000	6.47371	272.673	0.94257
590.5000	6.40854	272.565	0.941165
590.0000	6.36705	272.481	0.940084
589.5000	6.40244	272.378	0.938749
589.0000	6.37279	272.279	0.937462
588.5000	6.34261	272.162	0.935946
588.0000	6.2789	272.055	0.934552
587.5000	6.20864	271.947	0.933158
587.0000	6.24771	271.836	0.931716
586.5000	6.24337	271.728	0.930306
586.0000	6.23538	271.611	0.928791
585.5000	6.29049	271.505	0.927423
585.0000	6.33736	271.396	0.926007
584.5000	6.41594	271.284	0.924555
584.0000	6.41615	271.143	0.922719
583.5000	6.37533	270.993	0.920779
583.0000	6.2803	270.844	0.918848
582.5000	6.18746	270.697	0.916936
582.0000	6.14176	270.533	0.914812
581.5000	6.1078	270.372	0.912722
581.0000	6.14092	270.205	0.910564
580.5000	6.19252	270.054	0.908598
580.0000	6.24168	269.886	0.90642
579.5000	6.32691	269.729	0.904383
579.0000	6.42369	269.562	0.902218
578.5000	6.42916	269.419	0.900367
578.0000	6.46703	269.256	0.898254
577.5000	6.51722	269.118	0.896466
577.0000	6.56173	268.982	0.8947
576.5000	6.59719	268.869	0.893236
576.0000	6.62047	268.761	0.891832
575.5000	6.63536	268.636	0.890205
575.0000	6.7058	268.534	0.888886
574.5000	6.77395	268.432	0.887557
574.0000	6.81038	268.348	0.886475
573.5000	6.81928	268.237	0.885032
573.0000	6.83888	268.149	0.883891
572.5000	6.81514	268.059	0.88273
572.0000	6.82403	268.012	0.882116
571.5000	6.87423	267.934	0.881098
571.0000	6.86689	267.898	0.880638
570.5000	6.90474	267.85	0.880011
570.0000	6.98074	267.859	0.880133
569.5000	7.00428	267.835	0.87982
569.0000	7.09128	267.853	0.880053
568.5000	7.16765	267.853	0.880054
568.0000	7.23835	267.9	0.880664
567.5000	7.30556	267.907	0.880751
567.0000	7.4033	267.946	0.881265
566.5000	7.49268	267.972	0.881597
566.0000	7.59761	268.035	0.882412
565.5000	7.68075	268.075	0.882937
565.0000	7.72445	268.14	0.883782
564.5000	7.74697	268.202	0.884581
564.0000	7.69569	268.294	0.885772
563.5000	7.68946	268.38	0.886889
563.0000	7.73052	268.485	0.888248
562.5000	7.76037	268.615	0.889939
562.0000	7.81985	268.754	0.891739
561.5000	7.85179	268.918	0.893866
561.0000	7.95536	269.085	0.896034
560.5000	8.14383	269.305	0.89889
560.0000	8.23006	269.494	0.90134
559.5000	8.3335	269.725	0.904333
559.0000	8.43869	269.938	0.907099
558.5000	8.5202	270.202	0.910522
558.0000	8.57576	270.459	0.913857
557.5000	8.62448	270.741	0.917516
557.0000	8.63603	271.03	0.921254
556.5000	8.77283	271.333	0.925189
556.0000	8.8405	271.654	0.929349
555.5000	8.89675	271.97	0.933452
555.0000	8.93598	272.323	0.938025
554.5000	9.01585	272.649	0.942259
554.0000	9.18541	273.018	0.947049
553.5000	9.21915	273.38	0.951735
553.0000	9.1939	273.751	0.956551
552.5000	9.22439	274.125	0.961405
552.0000	9.34108	274.482	0.966035
551.5000	9.46012	274.847	0.970761
551.0000	9.43985	275.195	0.975282
550.5000	9.47288	275.534	0.979676
550.0000	9.53012	275.857	0.983868
549.5000	9.60082	276.17	0.987921
549.0000	9.69534	276.47	0.991821
548.5000	9.74136	276.752	0.995476
548.0000	9.80082	277.028	0.999077
547.5000	9.91174	277.289	1.00222
547.0000	9.85055	277.548	1.00534
546.5000	9.9476	277.815	1.00855
546.0000	9.9439	278.077	1.0117
545.5000	9.96725	278.332	1.01477
545.0000	9.98445	278.581	1.01777
544.5000	9.97032	278.846	1.02096
544.0000	9.97486	279.108	1.02409
543.5000	10.0705	279.377	1.0271
543.0000	10.0556	279.645	1.03007
542.5000	10.0859	279.912	1.03304
542.0000	10.142	280.188	1.03611
541.5000	10.1163	280.443	1.03895
541.0000	10.0978	280.699	1.04179
540.5000	10.0462	280.934	1.04439
540.0000	9.95362	281.134	1.04661
539.5000	9.95366	281.326	1.04874
539.0000	9.89262	281.482	1.05047
538.5000	9.7967	281.627	1.05208
538.0000	9.73323	281.781	1.05378
537.5000	9.76557	281.907	1.05518
537.0000	9.85865	282.022	1.05645
536.5000	9.90441	282.153	1.0579
536.0000	9.8337	282.281	1.05932
535.5000	9.79869	282.417	1.06082
535.0000	9.8201	282.554	1.06234
534.5000	9.82146	282.687	1.06381
534.0000	9.70976	282.835	1.06544
533.5000	9.62542	282.995	1.06721
533.0000	9.50715	283.146	1.06888
532.5000	9.48709	283.302	1.0706
532.0000	9.41011	283.457	1.07231
531.5000	9.28497	283.587	1.07374
531.0000	9.1199	283.745	1.07548
530.5000	9.05407	283.918	1.07739
530.0000	8.96937	284.082	1.0792
529.5000	8.90203	284.263	1.08119
529.0000	8.81732	284.469	1.08347
528.5000	8.67721	284.697	1.08597
528.0000	8.67506	284.926	1.08849
527.5000	8.64907	285.162	1.09109
527.0000	8.49642	285.399	1.0937
526.5000	8.28266	285.629	1.09622
526.0000	8.0633	285.883	1.09901
525.5000	7.908	286.128	1.1017
525.0000	7.81453	286.362	1.10427
524.5000	7.62429	286.631	1.10722
524.0000	7.46257	286.921	1.11039
523.5000	7.3688	287.212	1.11358
523.0000	7.25295	287.518	1.11693
522.5000	7.19236	287.841	1.12046
522.0000	7.0003	288.166	1.124
521.5000	6.84674	288.503	1.1277
521.0000	6.70811	288.83	1.13125
520.5000	6.48046	289.156	1.13481
520.0000	6.23759	289.503	1.13859
519.5000	6.10887	289.849	1.14236
519.0000	5.97448	290.215	1.14634
518.5000	5.84322	290.586	1.15038
518.0000	5.69984	290.956	1.1544
517.5000	5.56417	291.333	1.15849
517.0000	5.44222	291.709	1.16256
516.5000	5.42251	292.083	1.16661
516.0000	5.32299	292.463	1.17073
515.5000	5.21317	292.843	1.17485
515.0000	5.02878	293.263	1.17938
514.5000	4.86492	293.685	1.18394
514.0000	4.7586	294.135	1.18879
513.5000	4.60605	294.591	1.19371
513.0000	4.32173	295.071	1.19888
512.5000	4.06698	295.58	1.20435
512.0000	3.87248	296.073	1.20965
511.5000	3.68965	296.558	1.21485
511.0000	3.59693	297.049	1.22012
510.5000	3.3675	297.538	1.22535
510.0000	3.12793	298.024	1.23055
509.5000	2.95277	298.49	1.23553
509.0000	2.73215	298.941	1.24034
508.5000	2.54793	299.395	1.24518
508.0000	2.34715	299.844	1.24997
507.5000	2.10866	300.284	1.25465
507.0000	1.93526	300.721	1.2593
506.5000	1.77623	301.148	1.26383
506.0000	1.50502	301.564	1.26824
505.5000	1.30193	301.983	1.27269
505.0000	1.08813	302.41	1.27721
504.5000	0.784895	302.856	1.28193
504.0000	0.618491	303.319	1.28682
503.5000	0.380772	303.791	1.2918
503.0000	0.153914	304.278	1.29694
502.5000	-0.0838463	304.747	1.30189
502.0000	-0.2956	305.209	1.30675
501.5000	-0.583252	305.657	1.31146
501.0000	-0.920801	306.075	1.31585
500.5000	-1.34002	306.466	1.31996
500.0000	-1.6054	306.822	1.32369
499.5000	-1.85121	307.148	1.32711
499.0000	-2.13632	307.447	1.33023
498.5000	-2.43567	307.686	1.33274
498.0000	-2.6751	307.869	1.33465
497.5000	-2.98952	307.973	1.33574
497.0000	-3.37293	307.994	1.33596
496.5000	-3.80309	307.913	1.33511
496.0000	-4.23857	307.717	1.33306
495.5000	-4.60225	307.422	1.32998
495.0000	-5.03124	307.072	1.3263
494.5000	-5.37411	306.707	1.32248
494.0000	-5.61918	306.396	1.31922
493.5000	-5.86044	306.191	1.31707
493.0000	-6.13388	306.165	1.31679
492.5000	-6.37923	306.334	1.31857
492.0000	-6.68077	306.66	1.32198
491.5000	-6.93067	307.106	1.32666
491.0000	-7.28353	307.583	1.33166
490.5000	-7.63834	308.033	1.33636
490.0000	-7.92912	308.384	1.34003
489.5000	-8.23962	308.57	1.34198
489.0000	-8.53885	308.591	1.3422
488.5000	-8.86433	308.438	1.34059
488.0000	-9.07571	308.146	1.33755
487.5000	-9.30308	307.72	1.33309
487.0000	-9.51583	307.184	1.32749
486.5000	-9.7825	306.546	1.3208
486.0000	-10.0444	305.849	1.31348
485.5000	-10.1881	305.126	1.30588
485.0000	-10.293	304.419	1.29843
484.5000	-10.4582	303.77	1.29159
484.0000	-10.5759	303.248	1.28608
483.5000	-10.5914	302.896	1.28235
483.0000	-10.6365	302.767	1.28099
482.5000	-10.6654	302.881	1.2822
482.0000	-10.6629	303.233	1.28592
481.5000	-10.6857	303.787	1.29177
481.0000	-10.667	304.49	1.29918
480.5000	-10.6725	305.282	1.30753
480.0000	-10.6412	306.09	1.31601
479.5000	-10.5764	306.838	1.32386
479.0000	-10.4947	307.483	1.33062
478.5000	-10.4661	307.98	1.33581
478.0000	-10.4576	308.286	1.33902
477.5000	-10.3198	308.374	1.33993
477.0000	-10.2448	308.251	1.33865
476.5000	-10.1616	307.967	1.33567
476.0000	-10.0158	307.587	1.3317
475.5000	-9.87047	307.193	1.32758
475.0000	-9.7855	306.941	1.32493
474.5000	-9.62447	306.911	1.32462
474.0000	-9.48016	307.148	1.3271
473.5000	-9.26595	307.644	1.3323
473.0000	-9.04457	308.332	1.33949
472.5000	-8.86168	309.085	1.34736
472.0000	-8.71835	309.763	1.35442
471.5000	-8.48387	310.296	1.35996
471.0000	-8.31196	310.685	1.36401
470.5000	-8.12394	310.988	1.36716
470.0000	-8.00694	311.287	1.37026
469.5000	-7.8974	311.717	1.37471
469.0000	-7.84209	312.421	1.38201
468.5000	-7.66013	313.473	1.39288
468.0000	-7.38278	314.846	1.40704
467.5000	-7.11315	316.482	1.42385
467.0000	-6.8163	318.24	1.44184
466.5000	-6.50536	320.02	1.45998
466.0000	-6.17753	321.674	1.47677
465.5000	-5.72273	323.135	1.49154
465.0000	-5.44629	324.383	1.50413
464.5000	-5.16713	325.461	1.51497
464.0000	-4.75527	326.414	1.52454
463.5000	-4.35859	327.355	1.53395
463.0000	-3.88352	328.372	1.5441
462.5000	-3.32652	329.471	1.55505
462.0000	-2.8963	330.62	1.56647
461.5000	-2.26608	331.782	1.57798
461.0000	-1.74166	332.918	1.5892
460.5000	-1.09296	333.972	1.59959
460.0000	-0.43572	334.929	1.609
459.5000	0.200151	335.794	1.61748
459.0000	0.741962	336.63	1.62567
458.5000	1.46694	337.463	1.6338
458.0000	2.22859	338.338	1.64234
457.5000	3.01985	339.297	1.65166
457.0000	3.88623	340.289	1.66129
456.5000	4.60965	341.284	1.67092
456.0000	5.59984	342.226	1.68002
455.5000	6.59248	343.07	1.68815
455.0000	7.54456	343.792	1.69509
454.5000	8.6679	344.354	1.70049
454.0000	9.62281	344.792	1.70469
453.5000	10.5383	345.166	1.70827
453.0000	11.516	345.534	1.71179
452.5000	12.4207	345.994	1.71618
452.0000	13.5573	346.673	1.72267
451.5000	14.545	347.659	1.73207
451.0000	15.5858	348.976	1.74458
450.5000	16.7019	350.613	1.76008
450.0000	17.8668	352.554	1.77838
449.5000	19.0087	354.693	1.79843
449.0000	19.9137	356.896	1.81898
448.5000	20.8279	359.008	1.83857
448.0000	21.6786	360.97	1.85666
447.5000	22.1643	362.753	1.87303
447.0000	22.7617	364.347	1.8876
446.5000	23.1069	365.76	1.90048
446.0000	23.3854	367.043	1.91212
445.5000	23.5477	368.26	1.92312
445.0000	23.5716	369.437	1.93373
444.5000	23.5033	370.57	1.94393
444.0000	23.3357	371.678	1.95386
443.5000	23.0945	372.744	1.96338
443.0000	22.6395	373.759	1.97242
442.5000	21.8918	374.7	1.98079
442.0000	21.2705	375.572	1.98852
441.5000	20.3922	376.34	1.99532
441.0000	19.545	376.995	2.0011
440.5000	18.343	377.517	2.0057
440.0000	16.9816	377.934	2.00938
439.5000	15.7129	378.264	2.01228
439.0000	14.5226	378.53	2.01461
438.5000	13.1635	378.721	2.01629
438.0000	11.9932	378.827	2.01722
437.5000	10.7244	378.854	2.01746
437.0000	9.62306	378.781	2.01682
436.5000	8.84078	378.574	2.015
436.0000	8.10112	378.196	2.01167
435.5000	7.38821	377.651	2.00688
435.0000	6.78349	376.938	2.00059
434.5000	6.28961	376.078	1.993
434.0000	6.03212	375.087	1.98423
433.5000	5.90482	374.005	1.97461
433.0000	5.61569	372.839	1.96423
432.5000	5.25655	371.612	1.95326
432.0000	5.08122	370.35	1.94195
431.5000	4.9417	369.069	1.93042
431.0000	4.86409	367.773	1.91873
430.5000	4.77646	366.478	1.907
430.0000	4.80801	365.188	1.89528
429.5000	4.90399	363.914	1.88366
429.0000	5.1006	362.669	1.87227
428.5000	5.39156	361.463	1.86121
428.0000	5.67079	360.299	1.85049
427.5000	5.75919	359.186	1.84022
427.0000	5.92964	358.129	1.83043
426.5000	6.07236	357.126	1.82112
426.0000	6.27568	356.2	1.8125
425.5000	6.39054	355.32	1.8043
425.0000	6.45618	354.479	1.79644
424.5000	6.55686	353.682	1.78897
424.0000	6.73697	352.896	1.78159
423.5000	6.98342	352.116	1.77426
423.0000	7.01108	351.328	1.76683
422.5000	7.14515	350.531	1.75932
422.0000	7.34506	349.753	1.75195
421.5000	7.47974	348.999	1.74481
421.0000	7.56505	348.279	1.73797
420.5000	7.70215	347.65	1.732
420.0000	7.7987	347.105	1.72681
419.5000	7.92509	346.635	1.72232
419.0000	8.09756	346.224	1.71839
418.5000	8.23911	345.835	1.71468
418.0000	8.35551	345.44	1.7109
417.5000	8.58263	345.002	1.7067
417.0000	8.65898	344.476	1.70166
416.5000	8.69114	343.854	1.69569
416.0000	8.87563	343.135	1.68878
415.5000	8.93149	342.326	1.68098
415.0000	9.07938	341.427	1.67231
414.5000	9.16616	340.459	1.66294
414.0000	9.34214	339.433	1.65299
413.5000	9.32839	338.365	1.64259
413.0000	9.34644	337.27	1.63192
412.5000	9.38061	336.143	1.6209
412.0000	9.32004	334.986	1.60956
411.5000	9.34145	333.83	1.5982
411.0000	9.38668	332.652	1.58658
410.5000	9.36511	331.459	1.57478
410.0000	9.34996	330.245	1.56274
409.5000	9.33239	329.007	1.55044
409.0000	9.16409	327.756	1.53796
408.5000	9.15422	326.511	1.52551
408.0000	8.98437	325.244	1.51279
407.5000	8.7997	323.97	1.49997
407.0000	8.68931	322.697	1.48713
406.5000	8.57595	321.438	1.47439
406.0000	8.483	320.188	1.4617
405.5000	8.39536	318.95	1.44909
405.0000	8.26772	317.72	1.43654
404.5000	8.21702	316.518	1.42423
404.0000	8.16798	315.34	1.41213
403.5000	8.20917	314.187	1.40026
403.0000	8.29314	313.062	1.38865
402.5000	8.19164	311.953	1.37717
402.0000	8.15067	310.87	1.36593
401.5000	7.98489	309.811	1.35493
401.0000	7.88559	308.778	1.34415
400.5000	7.76611	307.781	1.33374
400.0000	7.56647	306.823	1.32371
399.5000	7.36043	305.92	1.31423
399.0000	7.31126	305.088	1.30548
398.5000	7.27722	304.328	1.29748
398.0000	7.26827	303.65	1.29032
397.5000	7.14353	303.052	1.28401
397.0000	7.0349	302.523	1.27841
396.5000	6.91528	302.057	1.27348
396.0000	6.93506	301.63	1.26894
395.5000	6.87336	301.232	1.26472
395.0000	6.80033	300.844	1.26061
394.5000	6.6758	300.457	1.25649
394.0000	6.64785	300.068	1.25235
393.5000	6.63619	299.681	1.24823
393.0000	6.586	299.29	1.24406
392.5000	6.41328	298.894	1.23984
392.0000	6.24631	298.5	1.23563
391.5000	6.09459	298.114	1.23151
391.0000	5.97316	297.726	1.22736
390.5000	5.77794	297.345	1.22328
390.0000	5.49695	296.951	1.21906
389.5000	5.2894	296.567	1.21494
389.0000	5.06561	296.172	1.2107
388.5000	4.85527	295.77	1.20638
388.0000	4.58672	295.353	1.20191
387.5000	4.39634	294.926	1.19731
387.0000	4.27704	294.489	1.19261
386.5000	4.16258	294.032	1.18768
386.0000	4.01774	293.56	1.18259
385.5000	3.88045	293.078	1.17738
385.0000	3.76163	292.581	1.17201
384.5000	3.63311	292.075	1.16652
384.0000	3.42581	291.555	1.16089
383.5000	3.31941	291.018	1.15507
383.0000	3.12453	290.474	1.14916
382.5000	2.94071	289.922	1.14315
382.0000	2.72816	289.357	1.137
381.5000	2.53162	288.774	1.13065
381.0000	2.45441	288.184	1.1242
380.5000	2.31299	287.583	1.11763
380.0000	2.10828	286.966	1.11089
379.5000	2.17785	286.336	1.10398
379.0000	2.222	285.698	1.09697
378.5000	2.20402	285.041	1.08976
378.0000	2.18209	284.381	1.08249
377.5000	2.14658	283.712	1.07512
377.0000	2.16955	283.026	1.06755
376.5000	2.12184	282.337	1.05993
376.0000	1.98311	281.636	1.05218
375.5000	1.90243	280.925	1.04429
375.0000	1.90868	280.208	1.03633
374.5000	1.81786	279.489	1.02833
374.0000	1.82578	278.765	1.01983
373.5000	1.78778	278.049	1.01121
373.0000	1.76524	277.333	1.00258
372.5000	1.79447	276.625	0.993826
372.0000	1.7851	275.942	0.984967
371.5000	1.7784	275.272	0.976281
371.0000	1.81529	274.61	0.967695
370.5000	1.78589	273.969	0.95938
370.0000	1.8316	273.347	0.95131
369.5000	1.90946	272.742	0.943457
369.0000	1.90519	272.152	0.935806
368.5000	1.87164	271.57	0.928267
368.0000	1.89804	271.012	0.921024
367.5000	1.89256	270.478	0.914096
367.0000	1.86604	269.969	0.907503
366.5000	1.84729	269.482	0.901184
366.0000	1.86004	269.015	0.89513
365.5000	1.88268	268.569	0.889345
365.0000	1.91864	268.147	0.883865
364.5000	1.97482	267.739	0.878571
364.0000	2.03106	267.348	0.873499
363.5000	2.11883	266.97	0.868607
363.0000	2.12189	266.606	0.863883
362.5000	2.0995	266.257	0.859354
362.0000	2.15053	265.927	0.855071
361.5000	2.0589	265.605	0.850893
361.0000	1.99121	265.298	0.846919
360.5000	1.96057	265.005	0.843111
360.0000	1.9155	264.729	0.83954
359.5000	1.93394	264.476	0.836249
359.0000	1.89018	264.235	0.833123
358.5000	1.90276	264.008	0.830188
358.0000	1.94798	263.798	0.827461
357.5000	2.06878	263.614	0.82507
357.0000	2.1059	263.453	0.822987
356.5000	2.17726	263.312	0.821152
356.0000	2.25272	263.187	0.819538
355.5000	2.36276	263.09	0.818278
355.0000	2.42141	263.021	0.817381
354.5000	2.50734	262.983	0.816885
354.0000	2.5577	262.965	0.816659
353.5000	2.68614	262.971	0.816734
353.0000	2.78326	263.012	0.817264
352.5000	2.87987	263.082	0.818171
352.0000	2.98667	263.172	0.819344
351.5000	3.15328	263.298	0.820971
351.0000	3.33951	263.453	0.822981
350.5000	3.53993	263.633	0.82532
350.0000	3.75385	263.835	0.827942

##### Extended Information
[Comments]
Sample name	cm13
Comment
User
Division
Company	MTA-SZBK

[Detailed Information]
Creation date	2/5/2016 1:47 PM

Data array type	Linear data array * 3
Horizontal axis	Wavelength [nm]
Vertical axis(1)	CD [mdeg]
Vertical axis(2)	HT [V]
Vertical axis(3)	Abs
Start	750 nm
End	350 nm
Data interval	0.5 nm
Data points	801     

[Measurement Information]
Instrument Name	J-815
Model Name	J-815
Serial No.	B042361168

Accessory	Standard
Accessory S/N	B042361168
  Cell Length	10 mm

Measurement date	2/5/2016 1:46 PM

Photometric Mode	CD, HT, Abs
Measure Range	750 - 350 nm
Data pitch	0.5 nm
Sensitivity	Standard
D.I.T.	2 sec
Bandwidth	3.00 nm
Start Mode	Immediately
Scanning Speed	100 nm/min
Baseline Correction	None
Shutter Control	Auto
CD Detector	PMT
PMT Voltage	Auto

