TITLE	wt
DATA TYPE	
ORIGIN	JASCO
OWNER	
DATE	16/02/05
TIME	12:16:42
SPECTROMETER/DATA SYSTEM	
LOCALE	1033
RESOLUTION	
DELTAX	-0.5
XUNITS	NANOMETERS
YUNITS	CD [mdeg]
Y2UNITS	HT [V]
Y3UNITS	ABSORBANCE
FIRSTX	  750.0000
LASTX	  350.0000
NPOINTS	     801
FIRSTY	    -5.48474
MAXY	    18.47379
MINY	   -12.98162
XYDATA
750.0000	-5.48474	315.374	1.4125
749.5000	-5.63369	315.106	1.40976
749.0000	-5.62334	314.798	1.40658
748.5000	-5.55034	314.434	1.40283
748.0000	-5.49391	314.014	1.3985
747.5000	-5.49172	313.55	1.39372
747.0000	-5.54241	313.027	1.38832
746.5000	-5.4648	312.502	1.38288
746.0000	-5.39696	311.98	1.37748
745.5000	-5.42425	311.48	1.3723
745.0000	-5.42012	311.016	1.36748
744.5000	-5.4844	310.596	1.36311
744.0000	-5.50833	310.226	1.35927
743.5000	-5.41058	309.931	1.3562
743.0000	-5.37825	309.683	1.35361
742.5000	-5.38549	309.473	1.35143
742.0000	-5.26779	309.287	1.34949
741.5000	-5.17378	309.098	1.34751
741.0000	-5.06228	308.877	1.34521
740.5000	-5.06885	308.586	1.34217
740.0000	-5.0409	308.219	1.33834
739.5000	-4.99342	307.748	1.33341
739.0000	-4.93936	307.158	1.32724
738.5000	-4.93449	306.443	1.31975
738.0000	-4.95565	305.636	1.31127
737.5000	-4.87418	304.738	1.30182
737.0000	-4.84696	303.944	1.29344
736.5000	-4.81098	303.253	1.28615
736.0000	-4.8415	302.739	1.28072
735.5000	-4.85303	302.431	1.27746
735.0000	-4.94232	302.333	1.27642
734.5000	-4.84061	302.369	1.2768
734.0000	-4.76137	302.558	1.2788
733.5000	-4.80177	302.834	1.28173
733.0000	-4.73014	303.128	1.28483
732.5000	-4.70024	303.386	1.28756
732.0000	-4.71713	303.605	1.28987
731.5000	-4.70853	303.756	1.29146
731.0000	-4.77129	303.908	1.29307
730.5000	-4.73589	304.095	1.29505
730.0000	-4.73386	304.268	1.29686
729.5000	-4.76241	304.424	1.29851
729.0000	-4.67513	304.571	1.30006
728.5000	-4.54987	304.642	1.30081
728.0000	-4.53381	304.659	1.30098
727.5000	-4.58267	304.659	1.30099
727.0000	-4.59825	304.617	1.30054
726.5000	-4.46813	304.524	1.29957
726.0000	-4.51925	304.384	1.29809
725.5000	-4.52074	304.132	1.29543
725.0000	-4.56408	303.879	1.29277
724.5000	-4.56342	303.635	1.29019
724.0000	-4.53385	303.346	1.28714
723.5000	-4.45578	303.013	1.28362
723.0000	-4.43581	302.643	1.27971
722.5000	-4.42251	302.137	1.27435
722.0000	-4.39704	301.679	1.26949
721.5000	-4.32018	301.214	1.26455
721.0000	-4.22485	300.74	1.25952
720.5000	-4.15315	300.263	1.25444
720.0000	-4.21414	299.777	1.24927
719.5000	-4.10522	299.218	1.24332
719.0000	-3.99212	298.79	1.23875
718.5000	-3.8986	298.38	1.23438
718.0000	-3.91941	297.999	1.2303
717.5000	-3.92184	297.641	1.22647
717.0000	-3.96043	297.228	1.22205
716.5000	-3.91074	296.898	1.21851
716.0000	-4.01636	296.69	1.21629
715.5000	-4.11878	296.567	1.21497
715.0000	-4.15889	296.526	1.21453
714.5000	-4.19954	296.555	1.21484
714.0000	-4.15884	296.591	1.21522
713.5000	-4.22547	296.812	1.21759
713.0000	-4.26534	297.093	1.22061
712.5000	-4.24558	297.407	1.22397
712.0000	-4.25942	297.735	1.22748
711.5000	-4.30351	297.967	1.22996
711.0000	-4.39459	298.214	1.23261
710.5000	-4.40067	298.512	1.23578
710.0000	-4.36854	298.788	1.23874
709.5000	-4.41507	299.034	1.24135
709.0000	-4.46659	299.212	1.24325
708.5000	-4.50942	299.342	1.24464
708.0000	-4.50496	299.568	1.24704
707.5000	-4.48318	299.779	1.2493
707.0000	-4.51925	299.973	1.25136
706.5000	-4.59761	300.109	1.25281
706.0000	-4.65617	300.169	1.25345
705.5000	-4.79463	300.322	1.25508
705.0000	-4.9412	300.503	1.257
704.5000	-5.01616	300.687	1.25895
704.0000	-5.18716	300.837	1.26055
703.5000	-5.29686	300.946	1.26171
703.0000	-5.39356	301.165	1.26403
702.5000	-5.50478	301.443	1.26698
702.0000	-5.58607	301.748	1.27022
701.5000	-5.69678	302.039	1.2733
701.0000	-5.90991	302.295	1.27602
700.5000	-6.05374	302.68	1.28009
700.0000	-6.23511	303.144	1.285
699.5000	-6.41246	303.666	1.29051
699.0000	-6.67633	304.202	1.29617
698.5000	-6.8417	304.712	1.30154
698.0000	-6.92663	305.386	1.30864
697.5000	-7.06003	306.163	1.3168
697.0000	-7.19491	306.978	1.32535
696.5000	-7.30767	307.766	1.3336
696.0000	-7.36372	308.564	1.34194
695.5000	-7.48659	309.509	1.3518
695.0000	-7.70453	310.56	1.36274
694.5000	-7.89082	311.667	1.37423
694.0000	-8.05385	312.731	1.38525
693.5000	-8.29267	313.832	1.39662
693.0000	-8.53466	315.135	1.41005
692.5000	-8.62999	316.562	1.4247
692.0000	-8.69693	318.077	1.44021
691.5000	-8.81322	319.552	1.45525
691.0000	-8.97343	321.158	1.47158
690.5000	-9.16699	323.03	1.49052
690.0000	-9.33591	324.997	1.51035
689.5000	-9.64867	326.993	1.53037
689.0000	-10.0101	328.978	1.55018
688.5000	-10.3516	331.027	1.57055
688.0000	-10.6735	333.156	1.59159
687.5000	-10.9733	335.265	1.61234
687.0000	-11.2166	337.278	1.63204
686.5000	-11.3729	339.393	1.65264
686.0000	-11.4896	341.622	1.67423
685.5000	-11.5512	343.984	1.69699
685.0000	-11.6067	346.458	1.72068
684.5000	-11.9328	349.056	1.7454
684.0000	-12.1693	351.831	1.77163
683.5000	-12.4218	354.785	1.79935
683.0000	-12.5431	357.784	1.82729
682.5000	-12.6341	360.638	1.85368
682.0000	-12.9816	363.466	1.87963
681.5000	-12.9419	366.317	1.90561
681.0000	-12.718	369.068	1.93049
680.5000	-12.5436	371.604	1.95327
680.0000	-12.4789	373.917	1.97392
679.5000	-12.1722	376.131	1.99356
679.0000	-12.1164	378.346	2.01309
678.5000	-11.608	380.341	2.0306
678.0000	-11.2867	382.056	2.04556
677.5000	-11.0826	383.604	2.05901
677.0000	-10.718	385.105	2.072
676.5000	-10.3408	386.441	2.08351
676.0000	-10.0086	387.423	2.09194
675.5000	-9.33425	388.167	2.09832
675.0000	-9.09694	388.726	2.10311
674.5000	-8.91672	389.083	2.10615
674.0000	-8.79917	389.011	2.10554
673.5000	-8.596	388.644	2.10241
673.0000	-8.69693	388.065	2.09745
672.5000	-8.83516	387.296	2.09086
672.0000	-9.42228	386.142	2.08093
671.5000	-9.61522	384.708	2.06856
671.0000	-9.7599	383.049	2.05419
670.5000	-9.9406	381.232	2.03837
670.0000	-10.4505	379.021	2.01903
669.5000	-10.6541	376.528	1.99707
669.0000	-10.7372	373.866	1.97346
668.5000	-10.953	371.121	1.94895
668.0000	-11.4354	368.12	1.92194
667.5000	-11.7444	364.983	1.89348
667.0000	-11.8808	361.824	1.86458
666.5000	-11.9528	358.75	1.83624
666.0000	-12.2394	355.542	1.80643
665.5000	-12.3157	352.226	1.77535
665.0000	-12.2688	348.944	1.74434
664.5000	-12.0796	345.775	1.71415
664.0000	-12.0126	342.507	1.68277
663.5000	-11.9122	339.245	1.6512
663.0000	-11.5821	336.046	1.61999
662.5000	-11.2607	333.042	1.59046
662.0000	-10.9978	330.076	1.56111
661.5000	-10.6567	327.216	1.5326
661.0000	-10.2199	324.476	1.50511
660.5000	-9.91672	321.924	1.47934
660.0000	-9.518	319.396	1.45367
659.5000	-9.28818	317.012	1.42931
659.0000	-8.80035	314.776	1.40635
658.5000	-8.26975	312.675	1.38468
658.0000	-7.79878	310.62	1.36337
657.5000	-7.29546	308.712	1.34349
657.0000	-6.77565	306.97	1.32527
656.5000	-6.27043	305.298	1.30771
656.0000	-5.85033	303.702	1.29089
655.5000	-5.53966	302.207	1.27509
655.0000	-5.19513	300.865	1.26085
654.5000	-4.79921	299.548	1.24684
654.0000	-4.56838	298.321	1.23375
653.5000	-4.39995	297.2	1.22175
653.0000	-4.37991	296.203	1.21106
652.5000	-4.20601	295.245	1.20077
652.0000	-4.00334	294.38	1.19145
651.5000	-3.92831	293.658	1.18367
651.0000	-3.84959	293.02	1.17677
650.5000	-3.68989	292.449	1.1706
650.0000	-3.43	291.976	1.16548
649.5000	-3.15332	291.635	1.16178
649.0000	-2.91857	291.331	1.15848
648.5000	-2.78738	291.089	1.15586
648.0000	-2.73212	290.904	1.15385
647.5000	-2.65505	290.789	1.1526
647.0000	-2.51123	290.688	1.15151
646.5000	-2.46632	290.612	1.15068
646.0000	-2.40559	290.567	1.15019
645.5000	-2.42141	290.525	1.14973
645.0000	-2.35431	290.494	1.1494
644.5000	-2.17698	290.488	1.14933
644.0000	-2.02842	290.497	1.14942
643.5000	-2.02578	290.489	1.14934
643.0000	-1.88874	290.485	1.14929
642.5000	-1.82462	290.5	1.14946
642.0000	-1.77539	290.508	1.14954
641.5000	-1.67663	290.524	1.14972
641.0000	-1.69441	290.525	1.14974
640.5000	-1.69448	290.52	1.14968
640.0000	-1.66517	290.513	1.14961
639.5000	-1.64068	290.496	1.14942
639.0000	-1.59215	290.478	1.14923
638.5000	-1.56747	290.44	1.14881
638.0000	-1.52757	290.383	1.14819
637.5000	-1.50735	290.3	1.14729
637.0000	-1.45505	290.206	1.14626
636.5000	-1.40798	290.093	1.14504
636.0000	-1.32602	289.937	1.14334
635.5000	-1.18087	289.77	1.14152
635.0000	-1.1214	289.582	1.13948
634.5000	-1.04079	289.356	1.13701
634.0000	-0.893325	289.138	1.13464
633.5000	-0.780781	288.913	1.13218
633.0000	-0.747089	288.662	1.12944
632.5000	-0.761639	288.393	1.1265
632.0000	-0.662728	288.14	1.12375
631.5000	-0.524068	287.885	1.12096
631.0000	-0.446367	287.585	1.11767
630.5000	-0.39786	287.313	1.1147
630.0000	-0.393696	287.043	1.11175
629.5000	-0.336258	286.766	1.10871
629.0000	-0.313442	286.51	1.10591
628.5000	-0.345323	286.263	1.10319
628.0000	-0.409901	285.97	1.09998
627.5000	-0.467149	285.722	1.09726
627.0000	-0.505344	285.484	1.09464
626.5000	-0.488936	285.198	1.0915
626.0000	-0.501049	284.959	1.08887
625.5000	-0.513565	284.725	1.08629
625.0000	-0.521018	284.427	1.08302
624.5000	-0.518855	284.191	1.08042
624.0000	-0.570479	283.957	1.07783
623.5000	-0.577672	283.665	1.07462
623.0000	-0.624319	283.432	1.07205
622.5000	-0.69591	283.194	1.06942
622.0000	-0.761241	282.894	1.06611
621.5000	-0.770415	282.675	1.06369
621.0000	-0.710234	282.456	1.06127
620.5000	-0.703038	282.181	1.05822
620.0000	-0.722086	281.948	1.05564
619.5000	-0.634492	281.69	1.05279
619.0000	-0.508236	281.38	1.04935
618.5000	-0.461273	281.108	1.04634
618.0000	-0.511302	280.795	1.04287
617.5000	-0.5223	280.449	1.03902
617.0000	-0.409773	280.142	1.03562
616.5000	-0.353064	279.778	1.03156
616.0000	-0.320423	279.406	1.02742
615.5000	-0.316164	279.065	1.02363
615.0000	-0.249658	278.673	1.01927
614.5000	-0.0615585	278.307	1.01518
614.0000	0.0648232	277.943	1.01079
613.5000	0.0673248	277.504	1.00523
613.0000	0.163786	277.133	1.00042
612.5000	0.207902	276.744	0.995364
612.0000	0.268245	276.314	0.98979
611.5000	0.372399	275.929	0.984798
611.0000	0.394853	275.508	0.979339
610.5000	0.440105	275.093	0.973952
610.0000	0.530487	274.712	0.969016
609.5000	0.675874	274.268	0.96325
609.0000	0.872998	273.868	0.958068
608.5000	0.897649	273.461	0.952783
608.0000	1.00107	273.012	0.946964
607.5000	1.18338	272.628	0.941988
607.0000	1.34541	272.216	0.936641
606.5000	1.4559	271.826	0.931579
606.0000	1.49107	271.478	0.927073
605.5000	1.6198	271.084	0.921962
605.0000	1.82678	270.754	0.917679
604.5000	1.95968	270.428	0.913456
604.0000	2.11778	270.103	0.909237
603.5000	2.28367	269.847	0.905913
603.0000	2.47146	269.531	0.901822
602.5000	2.67941	269.268	0.8984
602.0000	2.84866	269.024	0.895241
601.5000	2.94971	268.768	0.891919
601.0000	3.0628	268.577	0.889446
600.5000	3.23114	268.341	0.886387
600.0000	3.37247	268.141	0.883783
599.5000	3.52106	267.986	0.881773
599.0000	3.586	267.804	0.879412
598.5000	3.72245	267.684	0.87786
598.0000	3.84057	267.521	0.875752
597.5000	3.98701	267.389	0.874031
597.0000	4.04539	267.278	0.872596
596.5000	4.16516	267.15	0.870932
596.0000	4.28373	267.057	0.869734
595.5000	4.39991	266.927	0.868042
595.0000	4.45483	266.823	0.866694
594.5000	4.4879	266.724	0.865407
594.0000	4.49975	266.608	0.863911
593.5000	4.5496	266.516	0.862707
593.0000	4.58618	266.39	0.861073
592.5000	4.58427	266.296	0.859862
592.0000	4.64834	266.179	0.858337
591.5000	4.6298	266.065	0.856858
591.0000	4.66598	265.95	0.855377
590.5000	4.6641	265.819	0.853673
590.0000	4.66304	265.715	0.852318
589.5000	4.57466	265.59	0.8507
589.0000	4.5501	265.472	0.849174
588.5000	4.51963	265.344	0.847517
588.0000	4.57175	265.218	0.845881
587.5000	4.57694	265.098	0.84432
587.0000	4.57341	264.975	0.842726
586.5000	4.60671	264.85	0.841106
586.0000	4.66916	264.715	0.839354
585.5000	4.6821	264.589	0.83772
585.0000	4.65174	264.457	0.836008
584.5000	4.56171	264.329	0.834348
584.0000	4.57404	264.179	0.832405
583.5000	4.61444	264.023	0.830372
583.0000	4.64641	263.874	0.828447
582.5000	4.61691	263.725	0.826513
582.0000	4.63066	263.561	0.824392
581.5000	4.70023	263.405	0.822362
581.0000	4.7689	263.243	0.820265
580.5000	4.75944	263.087	0.818235
580.0000	4.70659	262.915	0.816003
579.5000	4.67872	262.753	0.813909
579.0000	4.71612	262.583	0.811703
578.5000	4.71766	262.441	0.809863
578.0000	4.74702	262.277	0.807738
577.5000	4.74473	262.13	0.805824
577.0000	4.77333	261.985	0.803945
576.5000	4.81097	261.859	0.802311
576.0000	4.85232	261.738	0.800738
575.5000	4.86136	261.6	0.798957
575.0000	4.89825	261.477	0.797361
574.5000	4.89349	261.358	0.79581
574.0000	4.95623	261.261	0.794553
573.5000	5.01731	261.136	0.792931
573.0000	5.10172	261.035	0.791622
572.5000	5.15656	260.92	0.790128
572.0000	5.19906	260.842	0.789116
571.5000	5.23421	260.73	0.787668
571.0000	5.24932	260.658	0.786733
570.5000	5.29618	260.577	0.785677
570.0000	5.3259	260.546	0.785287
569.5000	5.30715	260.487	0.784516
569.0000	5.34909	260.47	0.784301
568.5000	5.38832	260.437	0.783865
568.0000	5.3994	260.445	0.783977
567.5000	5.41954	260.414	0.783573
567.0000	5.43034	260.408	0.783498
566.5000	5.47488	260.384	0.783183
566.0000	5.5454	260.4	0.783384
565.5000	5.59225	260.393	0.783292
565.0000	5.6989	260.404	0.783441
564.5000	5.76508	260.412	0.783542
564.0000	5.81256	260.449	0.78403
563.5000	5.81862	260.48	0.784425
563.0000	5.85487	260.523	0.784985
562.5000	5.88819	260.589	0.785839
562.0000	5.92764	260.661	0.786772
561.5000	5.94173	260.753	0.787969
561.0000	6.05422	260.843	0.78913
560.5000	6.2082	260.973	0.790818
560.0000	6.31191	261.078	0.792184
559.5000	6.41302	261.22	0.794017
559.0000	6.50798	261.342	0.795603
558.5000	6.59743	261.514	0.797839
558.0000	6.69218	261.675	0.799919
557.5000	6.76825	261.86	0.80232
557.0000	6.81673	262.05	0.804785
556.5000	6.87349	262.251	0.807396
556.0000	6.93988	262.472	0.810267
555.5000	6.97514	262.681	0.812976
555.0000	7.01197	262.923	0.81611
554.5000	6.98907	263.141	0.81894
554.0000	6.99912	263.395	0.822235
553.5000	7.0501	263.639	0.825394
553.0000	7.10165	263.899	0.828765
552.5000	7.19493	264.157	0.832118
552.0000	7.2891	264.397	0.835228
551.5000	7.3769	264.646	0.838456
551.0000	7.46746	264.882	0.841525
550.5000	7.51518	265.111	0.844491
550.0000	7.49743	265.325	0.84726
549.5000	7.51221	265.527	0.84989
549.0000	7.51708	265.722	0.852408
548.5000	7.51096	265.911	0.854863
548.0000	7.50418	266.09	0.857191
547.5000	7.46358	266.251	0.859281
547.0000	7.49363	266.413	0.861376
546.5000	7.53895	266.584	0.8636
546.0000	7.54197	266.748	0.865715
545.5000	7.53307	266.905	0.867754
545.0000	7.57489	267.059	0.869757
544.5000	7.6187	267.224	0.8719
544.0000	7.6645	267.39	0.874046
543.5000	7.66719	267.562	0.876284
543.0000	7.60753	267.725	0.878399
542.5000	7.62271	267.906	0.88074
542.0000	7.58835	268.095	0.883198
541.5000	7.55586	268.272	0.885486
541.0000	7.54176	268.453	0.887837
540.5000	7.54527	268.614	0.889926
540.0000	7.53664	268.746	0.89164
539.5000	7.52805	268.876	0.893321
539.0000	7.50661	268.963	0.894447
538.5000	7.52407	269.038	0.895417
538.0000	7.49291	269.121	0.896504
537.5000	7.49466	269.18	0.897267
537.0000	7.48461	269.235	0.897975
536.5000	7.48992	269.305	0.89889
536.0000	7.48927	269.369	0.899719
535.5000	7.5026	269.438	0.900612
535.0000	7.49533	269.512	0.901567
534.5000	7.41995	269.575	0.902383
534.0000	7.33428	269.655	0.903419
533.5000	7.23878	269.738	0.904501
533.0000	7.18833	269.813	0.905473
532.5000	7.08304	269.892	0.906505
532.0000	7.01293	269.98	0.907639
531.5000	6.93811	270.041	0.908435
531.0000	6.84224	270.123	0.909498
530.5000	6.79806	270.22	0.910748
530.0000	6.72215	270.3	0.911785
529.5000	6.68176	270.396	0.913038
529.0000	6.58111	270.515	0.914584
528.5000	6.50971	270.644	0.916249
528.0000	6.43977	270.776	0.917962
527.5000	6.34421	270.916	0.919782
527.0000	6.24889	271.058	0.921628
526.5000	6.09516	271.189	0.923318
526.0000	5.89542	271.344	0.925328
525.5000	5.73192	271.497	0.927318
525.0000	5.57175	271.64	0.929166
524.5000	5.50479	271.809	0.931363
524.0000	5.4079	271.994	0.933766
523.5000	5.23171	272.18	0.936171
523.0000	5.16815	272.371	0.938652
522.5000	5.16837	272.568	0.941201
522.0000	5.08638	272.763	0.943733
521.5000	4.96027	272.966	0.946368
521.0000	4.75844	273.16	0.948888
520.5000	4.64894	273.361	0.951497
520.0000	4.5494	273.578	0.954313
519.5000	4.32533	273.8	0.957181
519.0000	4.17765	274.042	0.960326
518.5000	4.0592	274.277	0.963368
518.0000	3.9948	274.505	0.966336
517.5000	3.91559	274.743	0.969411
517.0000	3.77445	274.977	0.972453
516.5000	3.67446	275.207	0.975431
516.0000	3.59675	275.436	0.978407
515.5000	3.46979	275.661	0.981323
515.0000	3.32575	275.928	0.98478
514.5000	3.12155	276.193	0.988229
514.0000	2.94347	276.481	0.991961
513.5000	2.7821	276.776	0.995778
513.0000	2.61339	277.087	0.999814
512.5000	2.46708	277.419	1.00412
512.0000	2.33714	277.739	1.00805
511.5000	2.16526	278.047	1.01176
511.0000	2.05177	278.353	1.01545
510.5000	1.9241	278.644	1.01894
510.0000	1.78683	278.939	1.02222
509.5000	1.61453	279.211	1.02525
509.0000	1.33624	279.463	1.02806
508.5000	1.0943	279.715	1.03087
508.0000	0.849485	279.954	1.03352
507.5000	0.70287	280.189	1.03614
507.0000	0.574599	280.42	1.0387
506.5000	0.367909	280.641	1.04116
506.0000	0.198759	280.855	1.04352
505.5000	0.0975517	281.066	1.04587
505.0000	-0.0473907	281.289	1.04834
504.5000	-0.219456	281.523	1.05094
504.0000	-0.534678	281.776	1.05374
503.5000	-0.812779	282.035	1.05661
503.0000	-1.06287	282.304	1.05958
502.5000	-1.34163	282.567	1.06248
502.0000	-1.57151	282.82	1.06528
501.5000	-1.79317	283.07	1.06805
501.0000	-2.00287	283.297	1.07056
500.5000	-2.22862	283.5	1.0728
500.0000	-2.47922	283.673	1.07471
499.5000	-2.63506	283.813	1.07625
499.0000	-2.871	283.928	1.07751
498.5000	-3.16666	283.998	1.07828
498.0000	-3.46312	284.012	1.07844
497.5000	-3.78114	283.959	1.07786
497.0000	-3.99993	283.838	1.07652
496.5000	-4.30362	283.628	1.07421
496.0000	-4.68716	283.329	1.0709
495.5000	-5.04656	282.943	1.06665
495.0000	-5.30704	282.508	1.06184
494.5000	-5.57887	282.063	1.05692
494.0000	-5.92346	281.667	1.05252
493.5000	-6.20248	281.373	1.04927
493.0000	-6.45157	281.242	1.04782
492.5000	-6.54903	281.286	1.04831
492.0000	-6.82114	281.488	1.05055
491.5000	-7.09426	281.818	1.0542
491.0000	-7.28853	282.201	1.05844
490.5000	-7.44199	282.58	1.06263
490.0000	-7.73898	282.883	1.06598
489.5000	-8.00275	283.058	1.06791
489.0000	-8.30985	283.099	1.06836
488.5000	-8.43305	282.993	1.0672
488.0000	-8.6494	282.759	1.06462
487.5000	-8.95074	282.41	1.06076
487.0000	-9.12104	281.958	1.05576
486.5000	-9.34849	281.422	1.04982
486.0000	-9.55195	280.83	1.04325
485.5000	-9.71619	280.199	1.03624
485.0000	-9.92117	279.58	1.02936
484.5000	-10.0576	279.005	1.02296
484.0000	-10.24	278.528	1.01743
483.5000	-10.3187	278.194	1.0134
483.0000	-10.3528	278.038	1.01152
482.5000	-10.4598	278.093	1.01219
482.0000	-10.5313	278.363	1.01544
481.5000	-10.5835	278.805	1.02073
481.0000	-10.5056	279.381	1.02714
480.5000	-10.5028	280.04	1.03447
480.0000	-10.5375	280.711	1.04193
479.5000	-10.5066	281.332	1.04882
479.0000	-10.3804	281.852	1.05458
478.5000	-10.3506	282.231	1.05877
478.0000	-10.2301	282.432	1.061
477.5000	-10.1522	282.424	1.06091
477.0000	-10.0343	282.225	1.05871
476.5000	-9.89966	281.857	1.05464
476.0000	-9.82308	281.383	1.04939
475.5000	-9.76028	280.881	1.04381
475.0000	-9.61094	280.48	1.03936
474.5000	-9.52062	280.257	1.03689
474.0000	-9.39677	280.265	1.03697
473.5000	-9.24459	280.487	1.03944
473.0000	-9.07965	280.896	1.04398
472.5000	-8.95671	281.38	1.04935
472.0000	-8.80864	281.817	1.05419
471.5000	-8.68599	282.129	1.05765
471.0000	-8.51717	282.315	1.0597
470.5000	-8.43752	282.418	1.06084
470.0000	-8.36192	282.509	1.06184
469.5000	-8.17187	282.703	1.06399
469.0000	-7.90513	283.127	1.06867
468.5000	-7.75485	283.846	1.0766
468.0000	-7.57746	284.845	1.08761
467.5000	-7.27168	286.091	1.10131
467.0000	-6.98317	287.467	1.11638
466.5000	-6.73512	288.867	1.13168
466.0000	-6.52404	290.173	1.1459
465.5000	-6.23884	291.313	1.15828
465.0000	-5.90089	292.272	1.16868
464.5000	-5.55863	293.084	1.17746
464.0000	-5.21276	293.783	1.185
463.5000	-4.88216	294.464	1.19235
463.0000	-4.55288	295.211	1.20039
462.5000	-4.11535	296.036	1.20926
462.0000	-3.75984	296.915	1.21869
461.5000	-3.37043	297.815	1.22833
461.0000	-2.82474	298.703	1.23781
460.5000	-2.35601	299.517	1.2465
460.0000	-1.74796	300.254	1.25434
459.5000	-1.18369	300.909	1.26131
459.0000	-0.600669	301.533	1.26793
458.5000	0.0537949	302.151	1.27449
458.0000	0.632046	302.81	1.28146
457.5000	1.21387	303.539	1.28917
457.0000	1.8661	304.305	1.29725
456.5000	2.46452	305.067	1.30528
456.0000	3.12263	305.78	1.31277
455.5000	3.77398	306.42	1.31949
455.0000	4.45815	306.942	1.32497
454.5000	5.22588	307.306	1.32878
454.0000	5.97596	307.557	1.3314
453.5000	6.82833	307.742	1.33334
453.0000	7.70032	307.914	1.33514
452.5000	8.61406	308.149	1.33759
452.0000	9.54658	308.546	1.34175
451.5000	10.5827	309.206	1.34864
451.0000	11.5605	310.146	1.35843
450.5000	12.5031	311.346	1.37089
450.0000	13.3798	312.799	1.38594
449.5000	14.2149	314.426	1.40273
449.0000	15.0273	316.121	1.42017
448.5000	15.7645	317.752	1.43688
448.0000	16.264	319.248	1.45215
447.5000	16.813	320.589	1.46579
447.0000	17.3443	321.781	1.47788
446.5000	17.8007	322.824	1.48843
446.0000	18.0773	323.746	1.49774
445.5000	18.3084	324.61	1.50644
445.0000	18.4004	325.436	1.51475
444.5000	18.4738	326.227	1.52268
444.0000	18.3563	326.998	1.5304
443.5000	18.0829	327.727	1.53769
443.0000	17.6548	328.41	1.54451
442.5000	17.0881	329.047	1.55086
442.0000	16.4089	329.622	1.55658
441.5000	15.6944	330.129	1.56162
441.0000	14.7554	330.56	1.5659
440.5000	13.7727	330.899	1.56926
440.0000	12.8231	331.172	1.57196
439.5000	11.9348	331.388	1.5741
439.0000	11.0058	331.553	1.57574
438.5000	10.1757	331.671	1.5769
438.0000	9.28485	331.734	1.57753
437.5000	8.52384	331.753	1.57771
437.0000	7.66223	331.699	1.57718
436.5000	6.98797	331.555	1.57576
436.0000	6.25358	331.282	1.57306
435.5000	5.59635	330.904	1.56931
435.0000	4.98194	330.405	1.56436
434.5000	4.4601	329.792	1.55827
434.0000	4.23064	329.088	1.55126
433.5000	3.95025	328.31	1.54351
433.0000	3.55923	327.468	1.5351
432.5000	3.45875	326.591	1.52633
432.0000	3.26265	325.672	1.51711
431.5000	3.24045	324.734	1.50769
431.0000	3.13792	323.79	1.49818
430.5000	3.09871	322.835	1.48854
430.0000	3.17898	321.881	1.47889
429.5000	3.16412	320.933	1.46928
429.0000	3.16838	320.005	1.45985
428.5000	3.31405	319.105	1.45069
428.0000	3.31258	318.232	1.44178
427.5000	3.42909	317.391	1.43318
427.0000	3.44052	316.586	1.42494
426.5000	3.531	315.819	1.41706
426.0000	3.70343	315.102	1.40969
425.5000	3.89536	314.418	1.40265
425.0000	3.99706	313.769	1.39596
424.5000	4.21608	313.154	1.38961
424.0000	4.33971	312.556	1.38342
423.5000	4.41077	311.961	1.37726
423.0000	4.64489	311.368	1.37112
422.5000	4.84946	310.771	1.36492
422.0000	4.97339	310.185	1.35882
421.5000	5.12206	309.611	1.35285
421.0000	5.33065	309.072	1.34724
420.5000	5.55841	308.604	1.34235
420.0000	5.70224	308.201	1.33814
419.5000	5.73128	307.866	1.33464
419.0000	5.87248	307.587	1.33172
418.5000	5.99035	307.332	1.32904
418.0000	6.06244	307.072	1.32632
417.5000	6.07135	306.775	1.32322
417.0000	6.07121	306.413	1.31942
416.5000	6.24214	305.976	1.31482
416.0000	6.33363	305.464	1.30945
415.5000	6.37665	304.88	1.3033
415.0000	6.36272	304.23	1.29646
414.5000	6.40005	303.531	1.28908
414.0000	6.40407	302.792	1.28127
413.5000	6.42641	302.026	1.27316
413.0000	6.41075	301.239	1.26481
412.5000	6.44473	300.432	1.25624
412.0000	6.50093	299.601	1.24739
411.5000	6.55667	298.766	1.23849
411.0000	6.61467	297.913	1.22937
410.5000	6.66019	297.044	1.22007
410.0000	6.71695	296.155	1.21054
409.5000	6.78088	295.257	1.20089
409.0000	6.75945	294.336	1.19097
408.5000	6.6573	293.412	1.181
408.0000	6.50902	292.472	1.17084
407.5000	6.42915	291.526	1.16059
407.0000	6.32229	290.578	1.1503
406.5000	6.2651	289.647	1.14018
406.0000	6.1833	288.714	1.13
405.5000	6.11771	287.795	1.11997
405.0000	6.06411	286.887	1.11003
404.5000	6.14959	285.999	1.1003
404.0000	6.12766	285.132	1.09076
403.5000	6.09379	284.276	1.08135
403.0000	6.0196	283.429	1.072
402.5000	5.99796	282.598	1.06283
402.0000	5.96611	281.771	1.05368
401.5000	5.82465	280.959	1.04467
401.0000	5.72326	280.16	1.03581
400.5000	5.7015	279.385	1.02719
400.0000	5.53477	278.646	1.01874
399.5000	5.45867	277.953	1.01038
399.0000	5.38519	277.309	1.00262
398.5000	5.35268	276.732	0.99521
398.0000	5.33647	276.219	0.988562
397.5000	5.28475	275.771	0.982754
397.0000	5.19691	275.372	0.977579
396.5000	5.14938	275.028	0.973109
396.0000	5.10747	274.718	0.969098
395.5000	5.09039	274.434	0.965406
395.0000	5.08575	274.167	0.961948
394.5000	5.04075	273.898	0.958455
394.0000	4.93448	273.628	0.954955
393.5000	4.90981	273.36	0.951479
393.0000	4.87622	273.089	0.947961
392.5000	4.81173	272.808	0.944323
392.0000	4.72236	272.53	0.940715
391.5000	4.59289	272.254	0.937135
391.0000	4.52173	271.98	0.933579
390.5000	4.44664	271.708	0.930057
390.0000	4.31336	271.426	0.926396
389.5000	4.17915	271.142	0.922708
389.0000	4.04602	270.848	0.918903
388.5000	3.94944	270.544	0.914962
388.0000	3.82562	270.221	0.910768
387.5000	3.69639	269.886	0.906422
387.0000	3.6293	269.542	0.901964
386.5000	3.49473	269.181	0.897279
386.0000	3.37852	268.812	0.892486
385.5000	3.24743	268.434	0.887588
385.0000	3.15298	268.041	0.882496
384.5000	3.10034	267.641	0.877305
384.0000	3.00246	267.231	0.871989
383.5000	2.81067	266.81	0.866521
383.0000	2.71108	266.387	0.861035
382.5000	2.56331	265.952	0.855397
382.0000	2.38825	265.514	0.849711
381.5000	2.22645	265.065	0.84389
381.0000	2.0895	264.61	0.837987
380.5000	1.96077	264.147	0.83199
380.0000	1.90332	263.671	0.825812
379.5000	1.83262	263.179	0.819432
379.0000	1.777	262.674	0.812887
378.5000	1.7832	262.159	0.806198
378.0000	1.74046	261.631	0.799352
377.5000	1.67555	261.091	0.792353
377.0000	1.63257	260.542	0.78523
376.5000	1.55892	259.985	0.778
376.0000	1.4979	259.426	0.770754
375.5000	1.5045	258.856	0.763366
375.0000	1.48461	258.282	0.755923
374.5000	1.43772	257.707	0.748462
374.0000	1.47006	257.13	0.740975
373.5000	1.48293	256.558	0.733559
373.0000	1.52039	255.991	0.726201
372.5000	1.48389	255.429	0.718908
372.0000	1.41887	254.875	0.711727
371.5000	1.4462	254.334	0.704717
371.0000	1.44838	253.804	0.697841
370.5000	1.38511	253.292	0.691202
370.0000	1.37496	252.795	0.684754
369.5000	1.40482	252.306	0.678412
369.0000	1.44948	251.834	0.672291
368.5000	1.42432	251.378	0.666368
368.0000	1.33807	250.939	0.66068
367.5000	1.34108	250.519	0.655233
367.0000	1.31112	250.11	0.649923
366.5000	1.30571	249.715	0.644808
366.0000	1.28027	249.338	0.639916
365.5000	1.27262	248.973	0.635185
365.0000	1.29913	248.625	0.630663
364.5000	1.31941	248.287	0.626282
364.0000	1.30109	247.962	0.622066
363.5000	1.30629	247.654	0.618078
363.0000	1.29789	247.352	0.614159
362.5000	1.28735	247.061	0.610385
362.0000	1.27736	246.786	0.606819
361.5000	1.32461	246.52	0.603366
361.0000	1.34563	246.265	0.600053
360.5000	1.36667	246.02	0.596873
360.0000	1.42829	245.789	0.593887
359.5000	1.4685	245.572	0.591066
359.0000	1.45561	245.364	0.588365
358.5000	1.42506	245.167	0.585822
358.0000	1.4464	244.985	0.583451
357.5000	1.49373	244.819	0.581306
357.0000	1.53866	244.668	0.579344
356.5000	1.54144	244.534	0.5776
356.0000	1.5353	244.415	0.576064
355.5000	1.62052	244.315	0.57476
355.0000	1.69393	244.233	0.573706
354.5000	1.71316	244.179	0.573003
354.0000	1.76923	244.147	0.572582
353.5000	1.85068	244.134	0.57242
353.0000	1.99671	244.148	0.572603
352.5000	2.13456	244.183	0.573052
352.0000	2.25801	244.241	0.573802
351.5000	2.40251	244.325	0.574894
351.0000	2.55034	244.423	0.576167
350.5000	2.71489	244.548	0.577791
350.0000	2.86642	244.686	0.579572

##### Extended Information
[Comments]
Sample name	wt
Comment
User
Division
Company	MTA-SZBK

[Detailed Information]
Creation date	2/5/2016 1:16 PM

Data array type	Linear data array * 3
Horizontal axis	Wavelength [nm]
Vertical axis(1)	CD [mdeg]
Vertical axis(2)	HT [V]
Vertical axis(3)	Abs
Start	750 nm
End	350 nm
Data interval	0.5 nm
Data points	801     

[Measurement Information]
Instrument Name	J-815
Model Name	J-815
Serial No.	B042361168

Accessory	Standard
Accessory S/N	B042361168
  Cell Length	10 mm

Measurement date	2/5/2016 1:14 PM

Photometric Mode	CD, HT, Abs
Measure Range	750 - 350 nm
Data pitch	0.5 nm
Sensitivity	Standard
D.I.T.	2 sec
Bandwidth	3.00 nm
Start Mode	Immediately
Scanning Speed	100 nm/min
Baseline Correction	None
Shutter Control	Auto
CD Detector	PMT
PMT Voltage	Auto

