TITLE	baseline
DATA TYPE	
ORIGIN	JASCO
OWNER	
DATE	16/02/04
TIME	17:39:32
SPECTROMETER/DATA SYSTEM	
LOCALE	1033
RESOLUTION	
DELTAX	-0.5
XUNITS	NANOMETERS
YUNITS	CD [mdeg]
Y2UNITS	HT [V]
Y3UNITS	ABSORBANCE
FIRSTX	  750.0000
LASTX	  350.0000
NPOINTS	     801
FIRSTY	    -3.40911
MAXY	     1.72697
MINY	    -3.40911
XYDATA
750.0000	-3.40911	279.713	1.03084
749.5000	-3.31178	279.426	1.02764
749.0000	-3.27736	279.086	1.02387
748.5000	-3.25394	278.691	1.01946
748.0000	-3.28075	278.258	1.0146
747.5000	-3.29599	277.794	1.00899
747.0000	-3.26209	277.293	1.00248
746.5000	-3.18504	276.798	0.996073
746.0000	-3.16258	276.314	0.989792
745.5000	-3.12497	275.866	0.983979
745.0000	-3.02648	275.46	0.978718
744.5000	-2.97464	275.099	0.97403
744.0000	-2.90822	274.785	0.969965
743.5000	-2.89594	274.534	0.966707
743.0000	-2.89965	274.317	0.96389
742.5000	-2.88565	274.131	0.961481
742.0000	-2.85101	273.946	0.959083
741.5000	-2.84385	273.749	0.95652
741.0000	-2.80454	273.497	0.953259
740.5000	-2.82379	273.163	0.94893
740.0000	-2.8185	272.745	0.943508
739.5000	-2.87004	272.23	0.93682
739.0000	-2.81954	271.608	0.928762
738.5000	-2.85054	270.888	0.919412
738.0000	-2.82504	270.119	0.90944
737.5000	-2.79376	269.317	0.899046
737.0000	-2.69804	268.652	0.890418
736.5000	-2.61192	268.116	0.883461
736.0000	-2.58059	267.749	0.878701
735.5000	-2.55267	267.562	0.876284
735.0000	-2.53324	267.55	0.876124
734.5000	-2.48523	267.619	0.877024
734.0000	-2.47656	267.79	0.879241
733.5000	-2.524	268.012	0.882118
733.0000	-2.49784	268.229	0.884927
732.5000	-2.41276	268.418	0.887376
732.0000	-2.39334	268.574	0.8894
731.5000	-2.36499	268.675	0.890713
731.0000	-2.41253	268.789	0.892193
730.5000	-2.42477	268.933	0.894066
730.0000	-2.43525	269.061	0.895717
729.5000	-2.49255	269.171	0.897141
729.0000	-2.53657	269.26	0.898298
728.5000	-2.5318	269.27	0.898435
728.0000	-2.51896	269.229	0.897896
727.5000	-2.46358	269.171	0.897145
727.0000	-2.42519	269.067	0.8958
726.5000	-2.39249	268.918	0.893862
726.0000	-2.36127	268.72	0.891293
725.5000	-2.30285	268.42	0.887409
725.0000	-2.30057	268.134	0.883699
724.5000	-2.29462	267.843	0.879919
724.0000	-2.27642	267.508	0.87558
723.5000	-2.2022	267.143	0.870842
723.0000	-2.15763	266.742	0.865646
722.5000	-2.13227	266.226	0.858947
722.0000	-2.09925	265.749	0.85276
721.5000	-2.06772	265.264	0.846469
721.0000	-2.00061	264.765	0.84
720.5000	-1.98053	264.267	0.833549
720.0000	-2.0155	263.749	0.826828
719.5000	-1.96933	263.165	0.819247
719.0000	-1.95495	262.698	0.813193
718.5000	-1.91335	262.245	0.807321
718.0000	-1.82125	261.813	0.801719
717.5000	-1.8299	261.411	0.796504
717.0000	-1.75156	260.965	0.790718
716.5000	-1.67459	260.599	0.785974
716.0000	-1.58082	260.353	0.782777
715.5000	-1.48844	260.171	0.78042
715.0000	-1.43278	260.062	0.779002
714.5000	-1.47482	260.008	0.7783
714.0000	-1.44279	259.944	0.777468
713.5000	-1.42402	260.036	0.778667
713.0000	-1.40019	260.16	0.780281
712.5000	-1.42774	260.298	0.782065
712.0000	-1.45142	260.445	0.783971
711.5000	-1.4342	260.493	0.784591
711.0000	-1.38384	260.545	0.78527
710.5000	-1.37285	260.625	0.786308
710.0000	-1.39966	260.666	0.786835
709.5000	-1.41781	260.674	0.786941
709.0000	-1.41878	260.608	0.786088
708.5000	-1.44292	260.487	0.78452
708.0000	-1.39589	260.438	0.783884
707.5000	-1.39161	260.362	0.78289
707.0000	-1.3377	260.254	0.78149
706.5000	-1.28437	260.08	0.779239
706.0000	-1.27517	259.806	0.77568
705.5000	-1.23606	259.579	0.772739
705.0000	-1.16796	259.343	0.769676
704.5000	-1.14131	259.096	0.766473
704.0000	-1.1385	258.812	0.762786
703.5000	-1.11267	258.465	0.758287
703.0000	-1.07432	258.202	0.754877
702.5000	-1.03659	257.975	0.751938
702.0000	-0.997913	257.753	0.749061
701.5000	-0.971714	257.492	0.745673
701.0000	-0.944189	257.151	0.74125
700.5000	-0.912832	256.862	0.737504
700.0000	-0.919049	256.586	0.733918
699.5000	-0.914621	256.287	0.730047
699.0000	-0.858967	255.935	0.725479
698.5000	-0.842065	255.493	0.719749
698.0000	-0.838505	255.097	0.714603
697.5000	-0.786601	254.703	0.709502
697.0000	-0.772434	254.29	0.704139
696.5000	-0.717122	253.807	0.69788
696.0000	-0.681615	253.27	0.690917
695.5000	-0.659189	252.785	0.684618
695.0000	-0.628248	252.326	0.678674
694.5000	-0.57815	251.88	0.672886
694.0000	-0.517516	251.386	0.666475
693.5000	-0.433909	250.889	0.66003
693.0000	-0.358888	250.504	0.65504
692.5000	-0.272887	250.172	0.65073
692.0000	-0.229945	249.883	0.64698
691.5000	-0.216379	249.532	0.642432
691.0000	-0.178417	249.225	0.638453
690.5000	-0.190178	249.019	0.635774
690.0000	-0.181332	248.829	0.633313
689.5000	-0.174799	248.612	0.630497
689.0000	-0.141256	248.336	0.626924
688.5000	-0.121218	248.071	0.623487
688.0000	-0.0657618	247.862	0.620766
687.5000	-0.0387568	247.64	0.617886
687.0000	-0.00781606	247.331	0.613888
686.5000	0.059818	247.061	0.610386
686.0000	0.0652267	246.916	0.608505
685.5000	0.0511434	246.88	0.608039
685.0000	0.101808	246.906	0.608373
684.5000	0.127583	246.962	0.6091
684.0000	0.126727	247.107	0.610973
683.5000	0.161795	247.35	0.614127
683.0000	0.156756	247.574	0.61704
682.5000	0.178604	247.654	0.618068
682.0000	0.214531	247.677	0.618376
681.5000	0.211386	247.695	0.618598
681.0000	0.209894	247.679	0.618395
680.5000	0.190316	247.569	0.616971
680.0000	0.185562	247.391	0.614667
679.5000	0.188762	247.223	0.612487
679.0000	0.190024	247.117	0.611108
678.5000	0.183429	246.987	0.609417
678.0000	0.150403	246.786	0.606813
677.5000	0.16933	246.583	0.604181
677.0000	0.179393	246.462	0.602617
676.5000	0.154569	246.351	0.601177
676.0000	0.203418	246.167	0.59879
675.5000	0.220998	245.987	0.596449
675.0000	0.225647	245.855	0.59474
674.5000	0.232878	245.764	0.593563
674.0000	0.250616	245.59	0.591298
673.5000	0.285961	245.41	0.588965
673.0000	0.300426	245.256	0.586976
672.5000	0.268844	245.162	0.585756
672.0000	0.307223	245.015	0.583849
671.5000	0.350993	244.851	0.58172
671.0000	0.400496	244.715	0.579954
670.5000	0.398519	244.644	0.579034
670.0000	0.378828	244.503	0.577204
669.5000	0.397763	244.341	0.575099
669.0000	0.401201	244.196	0.573221
668.5000	0.409961	244.117	0.572194
668.0000	0.437808	243.994	0.570603
667.5000	0.424969	243.863	0.568904
667.0000	0.444731	243.746	0.567384
666.5000	0.478173	243.72	0.567054
666.0000	0.481624	243.645	0.566073
665.5000	0.448736	243.522	0.564482
665.0000	0.396336	243.404	0.562946
664.5000	0.384757	243.346	0.562203
664.0000	0.409863	243.224	0.56062
663.5000	0.416089	243.079	0.558735
663.0000	0.410024	242.926	0.556744
662.5000	0.429177	242.848	0.555742
662.0000	0.461889	242.698	0.55379
661.5000	0.505074	242.54	0.551749
661.0000	0.5329	242.377	0.549631
660.5000	0.522989	242.26	0.548107
660.0000	0.521608	242.074	0.545698
659.5000	0.54585	241.884	0.543234
659.0000	0.559683	241.708	0.540952
658.5000	0.573325	241.548	0.538883
658.0000	0.545062	241.322	0.53595
657.5000	0.59021	241.089	0.532925
657.0000	0.628408	240.883	0.530255
656.5000	0.674738	240.651	0.527248
656.0000	0.705922	240.385	0.523798
655.5000	0.721865	240.105	0.520156
655.0000	0.765218	239.867	0.517079
654.5000	0.820911	239.553	0.513004
654.0000	0.81892	239.226	0.508763
653.5000	0.824103	238.905	0.504592
653.0000	0.80832	238.618	0.50087
652.5000	0.802368	238.313	0.49692
652.0000	0.809027	238.029	0.493232
651.5000	0.807185	237.805	0.490327
651.0000	0.813527	237.616	0.48788
650.5000	0.818999	237.439	0.485578
650.0000	0.815409	237.301	0.483793
649.5000	0.834417	237.222	0.482763
649.0000	0.820632	237.125	0.481517
648.5000	0.812736	237.048	0.480515
648.0000	0.773503	236.98	0.479635
647.5000	0.749722	236.931	0.478999
647.0000	0.748421	236.859	0.478059
646.5000	0.752366	236.778	0.477009
646.0000	0.731109	236.699	0.475981
645.5000	0.80116	236.592	0.474601
645.0000	0.816861	236.478	0.473118
644.5000	0.835089	236.361	0.471609
644.0000	0.845609	236.242	0.470055
643.5000	0.86809	236.096	0.46817
643.0000	0.904196	235.938	0.466121
642.5000	0.914254	235.79	0.464195
642.0000	0.899401	235.631	0.462135
641.5000	0.905851	235.465	0.459979
641.0000	0.945052	235.281	0.457594
640.5000	0.985362	235.091	0.455135
640.0000	0.993794	234.893	0.452556
639.5000	0.982035	234.69	0.449933
639.0000	0.985153	234.494	0.447385
638.5000	0.957498	234.275	0.444547
638.0000	0.969237	234.053	0.441666
637.5000	0.946116	233.824	0.438703
637.0000	0.9452	233.597	0.435752
636.5000	0.981338	233.37	0.432805
636.0000	0.994366	233.12	0.429565
635.5000	0.99848	232.883	0.426489
635.0000	1.01197	232.651	0.423487
634.5000	1.02226	232.414	0.420407
634.0000	1.03499	232.197	0.417597
633.5000	0.976934	231.999	0.415022
633.0000	0.949832	231.796	0.41239
632.5000	0.98459	231.591	0.409739
632.0000	1.03148	231.413	0.407423
631.5000	1.03767	231.238	0.405157
631.0000	1.04635	231.028	0.402432
630.5000	1.06885	230.85	0.40012
630.0000	1.10409	230.672	0.397813
629.5000	1.12094	230.481	0.395335
629.0000	1.12649	230.305	0.393052
628.5000	1.14209	230.129	0.390774
628.0000	1.16718	229.915	0.387994
627.5000	1.18462	229.732	0.385626
627.0000	1.21462	229.547	0.383225
626.5000	1.23462	229.327	0.380367
626.0000	1.2347	229.139	0.377939
625.5000	1.22813	228.956	0.375554
625.0000	1.21813	228.722	0.372524
624.5000	1.2602	228.54	0.370158
624.0000	1.26623	228.362	0.36785
623.5000	1.26482	228.13	0.364852
623.0000	1.2892	227.957	0.362608
622.5000	1.34417	227.784	0.360352
622.0000	1.36886	227.567	0.35754
621.5000	1.3808	227.418	0.355608
621.0000	1.38229	227.281	0.353829
620.5000	1.42595	227.104	0.351538
620.0000	1.41911	226.978	0.349906
619.5000	1.37695	226.841	0.348125
619.0000	1.36672	226.675	0.345973
618.5000	1.39196	226.553	0.344398
618.0000	1.40312	226.418	0.342638
617.5000	1.38011	226.265	0.340661
617.0000	1.3563	226.159	0.339286
616.5000	1.37038	226.009	0.337339
616.0000	1.37502	225.868	0.335504
615.5000	1.36797	225.755	0.334048
615.0000	1.35695	225.61	0.332168
614.5000	1.34935	225.49	0.330605
614.0000	1.37047	225.376	0.329124
613.5000	1.39075	225.203	0.326878
613.0000	1.42638	225.092	0.325448
612.5000	1.44846	224.971	0.32388
612.0000	1.47592	224.818	0.321891
611.5000	1.49464	224.708	0.320459
611.0000	1.51819	224.561	0.318554
610.5000	1.53913	224.421	0.316734
610.0000	1.5399	224.316	0.315379
609.5000	1.56094	224.155	0.313296
609.0000	1.56005	224.024	0.311588
608.5000	1.56489	223.885	0.309787
608.0000	1.56405	223.7	0.307385
607.5000	1.56536	223.565	0.305639
607.0000	1.55043	223.396	0.303444
606.5000	1.5693	223.229	0.301275
606.0000	1.55514	223.087	0.299433
605.5000	1.57186	222.891	0.296898
605.0000	1.56179	222.735	0.294875
604.5000	1.55005	222.572	0.292763
604.0000	1.57526	222.392	0.290426
603.5000	1.56098	222.252	0.288612
603.0000	1.563	222.041	0.285871
602.5000	1.58297	221.862	0.283552
602.0000	1.56517	221.675	0.281131
601.5000	1.58084	221.465	0.278398
601.0000	1.5915	221.288	0.276102
600.5000	1.59824	221.059	0.273133
600.0000	1.61427	220.846	0.270372
599.5000	1.61759	220.664	0.268008
599.0000	1.59558	220.438	0.265077
598.5000	1.60193	220.261	0.262791
598.0000	1.61856	220.032	0.259811
597.5000	1.59961	219.817	0.257025
597.0000	1.62146	219.615	0.254409
596.5000	1.61595	219.39	0.251493
596.0000	1.63402	219.195	0.248959
595.5000	1.66619	218.971	0.246053
595.0000	1.68742	218.759	0.243301
594.5000	1.68206	218.562	0.240747
594.0000	1.69445	218.349	0.237992
593.5000	1.68059	218.158	0.235504
593.0000	1.70255	217.934	0.232604
592.5000	1.70386	217.742	0.230115
592.0000	1.70303	217.53	0.227369
591.5000	1.70083	217.328	0.224742
591.0000	1.72669	217.132	0.222203
590.5000	1.72697	216.926	0.219529
590.0000	1.71354	216.748	0.217221
589.5000	1.708	216.56	0.214787
589.0000	1.67645	216.383	0.212482
588.5000	1.69266	216.199	0.210099
588.0000	1.71198	216.022	0.207805
587.5000	1.69813	215.853	0.205615
587.0000	1.68587	215.687	0.203456
586.5000	1.70443	215.526	0.201374
586.0000	1.70658	215.353	0.199127
585.5000	1.72433	215.197	0.197108
585.0000	1.70929	215.042	0.1951
584.5000	1.68751	214.897	0.193211
584.0000	1.67617	214.729	0.191042
583.5000	1.68382	214.565	0.188912
583.0000	1.66697	214.409	0.186881
582.5000	1.64756	214.255	0.184889
582.0000	1.62987	214.091	0.182764
581.5000	1.63428	213.93	0.180673
581.0000	1.63381	213.765	0.178527
580.5000	1.63368	213.61	0.176524
580.0000	1.6204	213.441	0.174332
579.5000	1.65379	213.285	0.1723
579.0000	1.66338	213.116	0.170117
578.5000	1.65447	212.97	0.16822
578.0000	1.64044	212.803	0.16606
577.5000	1.63832	212.651	0.164079
577.0000	1.67552	212.496	0.162074
576.5000	1.68515	212.355	0.160242
576.0000	1.69938	212.21	0.158361
575.5000	1.71549	212.048	0.156265
575.0000	1.71277	211.896	0.154289
574.5000	1.70604	211.734	0.152195
574.0000	1.71053	211.584	0.150244
573.5000	1.6809	211.403	0.147898
573.0000	1.66379	211.244	0.145833
572.5000	1.6347	211.065	0.143509
572.0000	1.63455	210.916	0.141575
571.5000	1.63103	210.73	0.139172
571.0000	1.64505	210.586	0.137299
570.5000	1.63394	210.421	0.13516
570.0000	1.63478	210.294	0.133511
569.5000	1.63556	210.131	0.131397
569.0000	1.625	210.001	0.129716
568.5000	1.63236	209.845	0.127687
568.0000	1.63353	209.727	0.126164
567.5000	1.63609	209.565	0.124059
567.0000	1.62951	209.417	0.122134
566.5000	1.62604	209.246	0.11992
566.0000	1.61675	209.103	0.11806
565.5000	1.62828	208.935	0.115882
565.0000	1.62086	208.773	0.113787
564.5000	1.60418	208.593	0.111457
564.0000	1.56579	208.436	0.10941
563.5000	1.55295	208.269	0.10725
563.0000	1.54835	208.1	0.105063
562.5000	1.54243	207.934	0.102908
562.0000	1.5486	207.765	0.100708
561.5000	1.53616	207.607	0.0986683
561.0000	1.5345	207.438	0.0964648
560.5000	1.53236	207.292	0.0945738
560.0000	1.52079	207.109	0.0922097
559.5000	1.49785	206.952	0.0901721
559.0000	1.46505	206.762	0.0877036
558.5000	1.43715	206.599	0.08559
558.0000	1.42558	206.422	0.0832886
557.5000	1.39646	206.247	0.0810198
557.0000	1.36681	206.075	0.0787962
556.5000	1.35911	205.9	0.0765229
556.0000	1.35946	205.737	0.0744049
555.5000	1.3539	205.566	0.0721911
555.0000	1.33795	205.417	0.0702531
554.5000	1.33287	205.241	0.067981
554.0000	1.33167	205.096	0.0660946
553.5000	1.33432	204.945	0.0641424
553.0000	1.30349	204.798	0.0622342
552.5000	1.27279	204.65	0.0603112
552.0000	1.26406	204.487	0.0581902
551.5000	1.24003	204.329	0.0561533
551.0000	1.22337	204.169	0.0540694
550.5000	1.22093	204.009	0.0519987
550.0000	1.21705	203.839	0.0497982
549.5000	1.2335	203.673	0.0476428
549.0000	1.21926	203.509	0.0455089
548.5000	1.19705	203.35	0.0434461
548.0000	1.19509	203.195	0.0414355
547.5000	1.19448	203.035	0.0393647
547.0000	1.1845	202.877	0.0373186
546.5000	1.15462	202.726	0.0353521
546.0000	1.11789	202.566	0.0332763
545.5000	1.08476	202.406	0.0312112
545.0000	1.0692	202.248	0.0291604
544.5000	1.0433	202.095	0.0271715
544.0000	0.988936	201.944	0.0252075
543.5000	0.975973	201.796	0.0232928
543.0000	0.942853	201.654	0.0214464
542.5000	0.920087	201.527	0.0198075
542.0000	0.908185	201.406	0.0182417
541.5000	0.884448	201.281	0.016609
541.0000	0.875077	201.16	0.0150464
540.5000	0.867256	201.032	0.013381
540.0000	0.866101	200.886	0.0114924
539.5000	0.865161	200.749	0.00971266
539.0000	0.852348	200.578	0.00749841
538.5000	0.853521	200.404	0.00523522
538.0000	0.830828	200.241	0.00312211
537.5000	0.813309	200.057	0.000742149
537.0000	0.797975	199.876	-0.00160667
536.5000	0.780284	199.71	-0.00375732
536.0000	0.784231	199.537	-0.0059994
535.5000	0.762817	199.376	-0.00808686
535.0000	0.737242	199.222	-0.0100958
534.5000	0.721477	199.06	-0.0121924
534.0000	0.700616	198.909	-0.0141467
533.5000	0.655075	198.761	-0.0160702
533.0000	0.612649	198.599	-0.0181746
532.5000	0.590253	198.441	-0.0202234
532.0000	0.565168	198.286	-0.0222279
531.5000	0.552796	198.105	-0.0245762
531.0000	0.55284	197.932	-0.0268213
530.5000	0.529461	197.769	-0.0289349
530.0000	0.529705	197.596	-0.0311806
529.5000	0.51506	197.431	-0.0333263
529.0000	0.488766	197.273	-0.0353667
528.5000	0.479833	197.114	-0.0374313
528.0000	0.463139	196.954	-0.0395029
527.5000	0.436715	196.796	-0.0415524
527.0000	0.430179	196.642	-0.0435597
526.5000	0.40659	196.471	-0.0457723
526.0000	0.402035	196.315	-0.0477906
525.5000	0.397467	196.159	-0.0498221
525.0000	0.376454	195.984	-0.0520863
524.5000	0.361129	195.827	-0.0541194
524.0000	0.338662	195.676	-0.0560843
523.5000	0.340697	195.515	-0.0581753
523.0000	0.324076	195.354	-0.0602608
522.5000	0.295542	195.19	-0.0623906
522.0000	0.288152	195.026	-0.0645094
521.5000	0.274331	194.867	-0.0665701
521.0000	0.253811	194.699	-0.0687521
520.5000	0.243563	194.538	-0.0708378
520.0000	0.216003	194.376	-0.0729396
519.5000	0.198505	194.212	-0.0750649
519.0000	0.195306	194.062	-0.0770111
518.5000	0.179142	193.897	-0.0791528
518.0000	0.18371	193.734	-0.081264
517.5000	0.167863	193.567	-0.0834407
517.0000	0.165099	193.388	-0.0857577
516.5000	0.148928	193.215	-0.0879986
516.0000	0.138887	193.036	-0.0903285
515.5000	0.120359	192.854	-0.0926825
515.0000	0.0822937	192.697	-0.09472
514.5000	0.0547419	192.528	-0.096915
514.0000	0.0415421	192.378	-0.0988608
513.5000	0.0257172	192.231	-0.100768
513.0000	0.0240641	192.09	-0.102595
512.5000	0.00645803	191.961	-0.104264
512.0000	0.0100464	191.82	-0.106097
511.5000	0.0436183	191.671	-0.108031
511.0000	0.0551656	191.519	-0.110004
510.5000	0.0516134	191.358	-0.112083
510.0000	0.0321594	191.2	-0.114139
509.5000	0.0192495	191.028	-0.116364
509.0000	0.0259216	190.849	-0.118687
508.5000	0.026413	190.666	-0.121068
508.0000	-0.0121068	190.477	-0.123508
507.5000	-0.00782572	190.287	-0.125983
507.0000	-0.00974426	190.09	-0.128529
506.5000	-0.0107503	189.892	-0.131099
506.0000	-0.0323329	189.69	-0.133715
505.5000	-0.0725032	189.486	-0.136373
505.0000	-0.0988129	189.296	-0.138827
504.5000	-0.11976	189.116	-0.141169
504.0000	-0.147805	188.955	-0.143258
503.5000	-0.170636	188.806	-0.145184
503.0000	-0.17036	188.667	-0.146995
502.5000	-0.182683	188.52	-0.148901
502.0000	-0.188463	188.372	-0.150813
501.5000	-0.201236	188.23	-0.152662
501.0000	-0.223945	188.077	-0.15464
500.5000	-0.24645	187.903	-0.156902
500.0000	-0.27336	187.719	-0.159282
499.5000	-0.31603	187.513	-0.161962
499.0000	-0.342015	187.294	-0.164801
498.5000	-0.392224	187.047	-0.168
498.0000	-0.415404	186.769	-0.1716
497.5000	-0.462233	186.449	-0.175757
497.0000	-0.524206	186.089	-0.180427
496.5000	-0.570562	185.669	-0.185876
496.0000	-0.612691	185.194	-0.192039
495.5000	-0.653406	184.668	-0.198851
495.0000	-0.714861	184.125	-0.205896
494.5000	-0.763463	183.59	-0.212831
494.0000	-0.765953	183.118	-0.218965
493.5000	-0.76055	182.75	-0.223736
493.0000	-0.773824	182.531	-0.226579
492.5000	-0.772888	182.479	-0.227249
492.0000	-0.751077	182.572	-0.226044
491.5000	-0.732193	182.773	-0.223431
491.0000	-0.744363	183.032	-0.220078
490.5000	-0.762777	183.296	-0.216649
490.0000	-0.793989	183.507	-0.213909
489.5000	-0.833633	183.628	-0.212349
489.0000	-0.87194	183.639	-0.212206
488.5000	-0.909822	183.54	-0.213492
488.0000	-0.94209	183.345	-0.21601
487.5000	-0.973604	183.054	-0.219795
487.0000	-1.02037	182.682	-0.224613
486.5000	-1.06359	182.24	-0.230345
486.0000	-1.10564	181.742	-0.236804
485.5000	-1.16631	181.212	-0.243676
485.0000	-1.22454	180.678	-0.250609
484.5000	-1.27191	180.172	-0.257176
484.0000	-1.33464	179.732	-0.262878
483.5000	-1.36	179.391	-0.267302
483.0000	-1.38401	179.174	-0.270115
482.5000	-1.37344	179.114	-0.270894
482.0000	-1.33622	179.195	-0.269844
481.5000	-1.32212	179.388	-0.267338
481.0000	-1.30862	179.661	-0.263799
480.5000	-1.29079	179.967	-0.259831
480.0000	-1.2871	180.246	-0.256213
479.5000	-1.29203	180.452	-0.253542
479.0000	-1.3271	180.535	-0.25246
478.5000	-1.38287	180.47	-0.253307
478.0000	-1.43055	180.234	-0.256361
477.5000	-1.4915	179.797	-0.262038
477.0000	-1.56519	179.176	-0.270089
476.5000	-1.64564	178.405	-0.280081
476.0000	-1.73301	177.546	-0.291225
475.5000	-1.79217	176.665	-0.302657
475.0000	-1.83968	175.861	-0.313078
474.5000	-1.87854	175.182	-0.321889
474.0000	-1.90109	174.67	-0.328527
473.5000	-1.91515	174.313	-0.333154
473.0000	-1.91977	174.066	-0.336358
472.5000	-1.939	173.842	-0.339273
472.0000	-1.9748	173.55	-0.343063
471.5000	-2.02212	173.153	-0.348205
471.0000	-2.06985	172.659	-0.354612
470.5000	-2.10384	172.106	-0.361787
470.0000	-2.12279	171.562	-0.368845
469.5000	-2.13618	171.118	-0.374595
469.0000	-2.12716	170.861	-0.377928
468.5000	-2.1169	170.837	-0.378248
468.0000	-2.09625	171.023	-0.375826
467.5000	-2.05038	171.394	-0.371025
467.0000	-2.02745	171.859	-0.364989
466.5000	-1.99909	172.341	-0.358737
466.0000	-2.00611	172.752	-0.353402
465.5000	-2.0189	173.053	-0.349503
465.0000	-2.02525	173.229	-0.347222
464.5000	-2.0297	173.307	-0.346213
464.0000	-2.04664	173.318	-0.346071
463.5000	-2.06507	173.339	-0.345792
463.0000	-2.06794	173.416	-0.34479
462.5000	-2.05199	173.565	-0.342868
462.0000	-2.0495	173.762	-0.340302
461.5000	-2.05189	173.987	-0.337386
461.0000	-2.06905	174.207	-0.334532
460.5000	-2.07073	174.38	-0.332287
460.0000	-2.0772	174.501	-0.330719
459.5000	-2.0902	174.569	-0.329844
459.0000	-2.09963	174.611	-0.329292
458.5000	-2.09373	174.651	-0.328779
458.0000	-2.08735	174.717	-0.327925
457.5000	-2.0734	174.822	-0.326555
457.0000	-2.07519	174.943	-0.324985
456.5000	-2.07425	175.054	-0.323544
456.0000	-2.07639	175.117	-0.322736
455.5000	-2.09509	175.104	-0.322903
455.0000	-2.1213	174.989	-0.324398
454.5000	-2.14829	174.747	-0.327537
454.0000	-2.17232	174.408	-0.331931
453.5000	-2.20986	174.007	-0.337123
453.0000	-2.23043	173.578	-0.342696
452.5000	-2.25765	173.165	-0.348046
452.0000	-2.27489	172.852	-0.352107
451.5000	-2.27185	172.702	-0.354059
451.0000	-2.26262	172.719	-0.35384
450.5000	-2.2423	172.892	-0.351587
450.0000	-2.20386	173.214	-0.34742
449.5000	-2.18375	173.622	-0.342119
449.0000	-2.17015	174.057	-0.336481
448.5000	-2.15327	174.432	-0.331616
448.0000	-2.14976	174.71	-0.328015
447.5000	-2.14812	174.88	-0.325807
447.0000	-2.14335	174.95	-0.324903
446.5000	-2.14189	174.92	-0.325285
446.0000	-2.13141	174.829	-0.326463
445.5000	-2.12042	174.715	-0.327952
445.0000	-2.1352	174.595	-0.3295
444.5000	-2.12587	174.465	-0.331188
444.0000	-2.14345	174.34	-0.332806
443.5000	-2.15026	174.215	-0.334433
443.0000	-2.15361	174.094	-0.336002
442.5000	-2.17627	173.969	-0.337621
442.0000	-2.18196	173.841	-0.339277
441.5000	-2.18601	173.694	-0.341189
441.0000	-2.19995	173.549	-0.343075
440.5000	-2.20763	173.392	-0.345103
440.0000	-2.21494	173.236	-0.347132
439.5000	-2.22238	173.095	-0.348952
439.0000	-2.22124	172.983	-0.350409
438.5000	-2.21791	172.909	-0.351365
438.0000	-2.19861	172.868	-0.351903
437.5000	-2.18761	172.86	-0.352008
437.0000	-2.19362	172.882	-0.351727
436.5000	-2.18587	172.908	-0.35138
436.0000	-2.17846	172.926	-0.351145
435.5000	-2.16706	172.937	-0.351001
435.0000	-2.17505	172.923	-0.351192
434.5000	-2.19376	172.89	-0.351617
434.0000	-2.2079	172.835	-0.352324
433.5000	-2.20018	172.764	-0.353249
433.0000	-2.20133	172.685	-0.354272
432.5000	-2.19072	172.607	-0.355287
432.0000	-2.18994	172.516	-0.356472
431.5000	-2.16684	172.421	-0.357696
431.0000	-2.14945	172.325	-0.358948
430.5000	-2.1282	172.226	-0.360229
430.0000	-2.11723	172.125	-0.36154
429.5000	-2.11824	172.023	-0.362863
429.0000	-2.11234	171.912	-0.364302
428.5000	-2.11261	171.8	-0.365755
428.0000	-2.09914	171.692	-0.367157
427.5000	-2.09829	171.58	-0.368611
427.0000	-2.10713	171.471	-0.370019
426.5000	-2.11555	171.351	-0.37158
426.0000	-2.11153	171.238	-0.373044
425.5000	-2.11706	171.123	-0.374533
425.0000	-2.11767	171	-0.376124
424.5000	-2.14029	170.863	-0.377901
424.0000	-2.13875	170.717	-0.379795
423.5000	-2.13368	170.557	-0.38187
423.0000	-2.10409	170.374	-0.384249
422.5000	-2.10241	170.169	-0.386902
422.0000	-2.1038	169.959	-0.389635
421.5000	-2.08844	169.748	-0.392366
421.0000	-2.06308	169.557	-0.39484
420.5000	-2.03547	169.405	-0.396813
420.0000	-2.01638	169.3	-0.398177
419.5000	-2.00881	169.249	-0.39884
419.0000	-1.99513	169.239	-0.398973
418.5000	-1.96159	169.261	-0.398684
418.0000	-1.93315	169.295	-0.398248
417.5000	-1.9091	169.321	-0.397908
417.0000	-1.8842	169.319	-0.39793
416.5000	-1.87129	169.286	-0.398362
416.0000	-1.85219	169.224	-0.399169
415.5000	-1.81798	169.131	-0.400375
415.0000	-1.80985	169.015	-0.401879
414.5000	-1.78734	168.893	-0.403458
414.0000	-1.76942	168.766	-0.405111
413.5000	-1.74934	168.643	-0.406698
413.0000	-1.72503	168.535	-0.408095
412.5000	-1.70053	168.439	-0.409345
412.0000	-1.68572	168.355	-0.41044
411.5000	-1.65887	168.29	-0.411285
411.0000	-1.64179	168.229	-0.412075
410.5000	-1.6072	168.181	-0.412691
410.0000	-1.58828	168.136	-0.413276
409.5000	-1.57089	168.09	-0.413878
409.0000	-1.5591	168.044	-0.414468
408.5000	-1.5204	168.004	-0.414987
408.0000	-1.49635	167.959	-0.415577
407.5000	-1.48767	167.914	-0.416157
407.0000	-1.47812	167.865	-0.41679
406.5000	-1.45845	167.817	-0.417407
406.0000	-1.42769	167.762	-0.418123
405.5000	-1.38723	167.707	-0.418846
405.0000	-1.36668	167.638	-0.419741
404.5000	-1.34153	167.56	-0.420747
404.0000	-1.30557	167.475	-0.421844
403.5000	-1.27538	167.38	-0.423078
403.0000	-1.24747	167.268	-0.424535
402.5000	-1.2394	167.143	-0.426151
402.0000	-1.2367	166.997	-0.428051
401.5000	-1.20546	166.837	-0.430118
401.0000	-1.1918	166.667	-0.43233
400.5000	-1.17327	166.495	-0.434558
400.0000	-1.14225	166.325	-0.436769
399.5000	-1.11736	166.163	-0.438861
399.0000	-1.09203	166.019	-0.44074
398.5000	-1.06115	165.904	-0.442224
398.0000	-1.04257	165.822	-0.443287
397.5000	-1.00342	165.773	-0.443923
397.0000	-0.988932	165.754	-0.444173
396.5000	-0.965471	165.762	-0.444073
396.0000	-0.930174	165.784	-0.443787
395.5000	-0.901967	165.819	-0.443327
395.0000	-0.878188	165.857	-0.442836
394.5000	-0.864346	165.891	-0.442393
394.0000	-0.860784	165.916	-0.44207
393.5000	-0.835975	165.938	-0.441779
393.0000	-0.825605	165.953	-0.441591
392.5000	-0.805441	165.956	-0.441548
392.0000	-0.783729	165.964	-0.44145
391.5000	-0.765266	165.975	-0.441306
391.0000	-0.725581	165.976	-0.441295
390.5000	-0.70463	165.981	-0.441229
390.0000	-0.69884	165.979	-0.441249
389.5000	-0.67511	165.983	-0.441199
389.0000	-0.673811	165.977	-0.441277
388.5000	-0.65946	165.965	-0.441432
388.0000	-0.668944	165.942	-0.441735
387.5000	-0.67526	165.909	-0.442155
387.0000	-0.656262	165.867	-0.442708
386.5000	-0.647255	165.822	-0.443295
386.0000	-0.64048	165.765	-0.444023
385.5000	-0.633879	165.7	-0.444872
385.0000	-0.634133	165.63	-0.445785
384.5000	-0.616338	165.558	-0.446717
384.0000	-0.599057	165.487	-0.44763
383.5000	-0.596505	165.415	-0.448574
383.0000	-0.598039	165.343	-0.449507
382.5000	-0.587533	165.271	-0.450438
382.0000	-0.573271	165.208	-0.451248
381.5000	-0.558556	165.148	-0.452029
381.0000	-0.554677	165.09	-0.452777
380.5000	-0.557484	165.04	-0.453427
380.0000	-0.546198	164.989	-0.454089
379.5000	-0.554634	164.937	-0.454762
379.0000	-0.55974	164.897	-0.455288
378.5000	-0.566429	164.855	-0.455835
378.0000	-0.567662	164.816	-0.456337
377.5000	-0.56349	164.774	-0.456878
377.0000	-0.559295	164.738	-0.457345
376.5000	-0.550464	164.701	-0.457824
376.0000	-0.546082	164.661	-0.458344
375.5000	-0.532816	164.619	-0.458886
375.0000	-0.522086	164.577	-0.459441
374.5000	-0.532597	164.529	-0.460054
374.0000	-0.52341	164.484	-0.460644
373.5000	-0.516479	164.436	-0.461261
373.0000	-0.512646	164.385	-0.461927
372.5000	-0.510956	164.337	-0.462553
372.0000	-0.500589	164.291	-0.463149
371.5000	-0.500608	164.251	-0.463665
371.0000	-0.485983	164.213	-0.464164
370.5000	-0.487192	164.178	-0.464611
370.0000	-0.477882	164.154	-0.464929
369.5000	-0.458817	164.13	-0.465231
369.0000	-0.452958	164.11	-0.465498
368.5000	-0.438398	164.095	-0.465691
368.0000	-0.418631	164.076	-0.465937
367.5000	-0.41014	164.062	-0.466122
367.0000	-0.41966	164.051	-0.466262
366.5000	-0.433367	164.04	-0.466399
366.0000	-0.43597	164.026	-0.466581
365.5000	-0.43262	164.014	-0.466737
365.0000	-0.443431	164.006	-0.466842
364.5000	-0.445425	164.004	-0.466864
364.0000	-0.432632	164.001	-0.466911
363.5000	-0.420432	163.994	-0.466994
363.0000	-0.414068	163.99	-0.467055
362.5000	-0.394024	163.984	-0.467124
362.0000	-0.380222	163.982	-0.46715
361.5000	-0.371544	163.978	-0.467207
361.0000	-0.385156	163.976	-0.467232
360.5000	-0.386557	163.974	-0.467263
360.0000	-0.379921	163.979	-0.467189
359.5000	-0.379102	163.988	-0.467072
359.0000	-0.37971	163.995	-0.466983
358.5000	-0.38152	164.003	-0.466877
358.0000	-0.360152	164.013	-0.466747
357.5000	-0.32348	164.021	-0.466641
357.0000	-0.293142	164.031	-0.466519
356.5000	-0.285881	164.045	-0.466333
356.0000	-0.272554	164.056	-0.466189
355.5000	-0.26199	164.072	-0.465987
355.0000	-0.256271	164.084	-0.465835
354.5000	-0.265797	164.101	-0.465613
354.0000	-0.283745	164.117	-0.465401
353.5000	-0.283489	164.129	-0.465245
353.0000	-0.283272	164.144	-0.465048
352.5000	-0.306054	164.154	-0.46492
352.0000	-0.316137	164.164	-0.464787
351.5000	-0.31092	164.179	-0.464592
351.0000	-0.292114	164.191	-0.464438
350.5000	-0.295865	164.204	-0.464274
350.0000	-0.299896	164.218	-0.464091

##### Extended Information
[Comments]
Sample name	baseline
Comment
User
Division
Company	MTA-SZBK

[Detailed Information]
Creation date	2/4/2016 6:39 PM

Data array type	Linear data array * 3
Horizontal axis	Wavelength [nm]
Vertical axis(1)	CD [mdeg]
Vertical axis(2)	HT [V]
Vertical axis(3)	Abs
Start	750 nm
End	350 nm
Data interval	0.5 nm
Data points	801     

[Measurement Information]
Instrument Name	J-815
Model Name	J-815
Serial No.	B042361168

Accessory	Standard
Accessory S/N	B042361168
  Cell Length	10 mm

Measurement date	2/4/2016 6:29 PM

Photometric Mode	CD, HT, Abs
Measure Range	750 - 350 nm
Data pitch	0.5 nm
Sensitivity	Standard
D.I.T.	2 sec
Bandwidth	3.00 nm
Start Mode	Immediately
Scanning Speed	100 nm/min
Baseline Correction	None
Shutter Control	Auto
CD Detector	PMT
PMT Voltage	Auto
Accumulations	3

