TITLE	cm
DATA TYPE	
ORIGIN	JASCO
OWNER	
DATE	16/02/04
TIME	18:24:02
SPECTROMETER/DATA SYSTEM	
LOCALE	1033
RESOLUTION	
DELTAX	-0.5
XUNITS	NANOMETERS
YUNITS	CD [mdeg]
Y2UNITS	HT [V]
Y3UNITS	ABSORBANCE
FIRSTX	  750.0000
LASTX	  350.0000
NPOINTS	     801
FIRSTY	    -3.18192
MAXY	    16.28048
MINY	   -10.19421
XYDATA
750.0000	-3.18192	299.526	1.2466
749.5000	-3.16504	299.222	1.24336
749.0000	-3.00773	298.857	1.23946
748.5000	-2.94539	298.435	1.23497
748.0000	-2.6913	297.972	1.23001
747.5000	-2.67774	297.478	1.22473
747.0000	-2.64792	296.954	1.21912
746.5000	-2.66273	296.445	1.21366
746.0000	-2.80965	295.95	1.20835
745.5000	-2.90735	295.501	1.20352
745.0000	-2.99548	295.089	1.19909
744.5000	-3.08464	294.744	1.19538
744.0000	-3.20019	294.457	1.19229
743.5000	-3.12096	294.24	1.18995
743.0000	-3.09649	294.061	1.18802
742.5000	-3.09904	293.907	1.18636
742.0000	-3.06893	293.739	1.18454
741.5000	-2.99636	293.542	1.18242
741.0000	-2.9661	293.274	1.17953
740.5000	-2.92184	292.906	1.17554
740.0000	-2.91822	292.434	1.17044
739.5000	-2.85936	291.849	1.16411
739.0000	-2.76401	291.154	1.15656
738.5000	-2.73806	290.371	1.14806
738.0000	-2.81025	289.557	1.1392
737.5000	-2.71005	288.724	1.13012
737.0000	-2.66017	288.072	1.123
736.5000	-2.63037	287.591	1.11774
736.0000	-2.54575	287.304	1.11461
735.5000	-2.49374	287.227	1.11376
735.0000	-2.45009	287.32	1.11478
734.5000	-2.46656	287.5	1.11675
734.0000	-2.55654	287.773	1.11974
733.5000	-2.63854	288.072	1.123
733.0000	-2.63077	288.346	1.126
732.5000	-2.71959	288.585	1.12861
732.0000	-2.70454	288.789	1.13083
731.5000	-2.58343	288.93	1.13237
731.0000	-2.44991	289.079	1.134
730.5000	-2.29229	289.255	1.13591
730.0000	-2.31257	289.414	1.13764
729.5000	-2.31587	289.542	1.13904
729.0000	-2.24469	289.64	1.1401
728.5000	-2.27809	289.655	1.14027
728.0000	-2.29131	289.617	1.13985
727.5000	-2.36313	289.563	1.13926
727.0000	-2.28295	289.466	1.13821
726.5000	-2.16412	289.322	1.13664
726.0000	-2.11191	289.128	1.13452
725.5000	-2.1652	288.831	1.13129
725.0000	-2.13205	288.531	1.12801
724.5000	-2.22757	288.23	1.12473
724.0000	-2.17814	287.88	1.12091
723.5000	-2.25574	287.487	1.11661
723.0000	-2.34258	287.073	1.11207
722.5000	-2.50097	286.54	1.10624
722.0000	-2.51424	286.061	1.10098
721.5000	-2.53024	285.585	1.09576
721.0000	-2.49893	285.115	1.09059
720.5000	-2.45673	284.651	1.08548
720.0000	-2.3949	284.178	1.08028
719.5000	-2.26758	283.638	1.07432
719.0000	-2.16748	283.232	1.06984
718.5000	-2.07449	282.844	1.06556
718.0000	-2.1296	282.487	1.06161
717.5000	-2.09849	282.161	1.058
717.0000	-2.03002	281.8	1.05401
716.5000	-2.04984	281.536	1.05108
716.0000	-2.07765	281.399	1.04956
715.5000	-2.13152	281.336	1.04887
715.0000	-2.25448	281.369	1.04923
714.5000	-2.13318	281.472	1.05038
714.0000	-2.18559	281.574	1.0515
713.5000	-2.28611	281.838	1.05443
713.0000	-2.28068	282.14	1.05778
712.5000	-2.26422	282.461	1.06132
712.0000	-2.21512	282.786	1.06492
711.5000	-2.30448	283.003	1.06731
711.0000	-2.38884	283.23	1.06982
710.5000	-2.37014	283.493	1.07272
710.0000	-2.33609	283.733	1.07537
709.5000	-2.33301	283.945	1.0777
709.0000	-2.38983	284.085	1.07925
708.5000	-2.38392	284.183	1.08033
708.0000	-2.40915	284.362	1.0823
707.5000	-2.46219	284.516	1.084
707.0000	-2.61987	284.656	1.08554
706.5000	-2.78237	284.746	1.08653
706.0000	-2.95731	284.761	1.0867
705.5000	-3.18066	284.862	1.08781
705.0000	-3.28095	284.989	1.08921
704.5000	-3.35624	285.133	1.09078
704.0000	-3.48114	285.247	1.09204
703.5000	-3.55786	285.323	1.09288
703.0000	-3.60116	285.515	1.09499
702.5000	-3.53991	285.764	1.09772
702.0000	-3.62317	286.035	1.1007
701.5000	-3.83684	286.289	1.10349
701.0000	-3.91602	286.515	1.10596
700.5000	-4.14776	286.847	1.1096
700.0000	-4.40133	287.239	1.1139
699.5000	-4.69654	287.665	1.11856
699.0000	-4.89725	288.093	1.12323
698.5000	-4.9786	288.498	1.12765
698.0000	-5.07861	289.035	1.13351
697.5000	-5.18719	289.67	1.14043
697.0000	-5.25421	290.334	1.14766
696.5000	-5.36492	290.968	1.15455
696.0000	-5.37718	291.609	1.1615
695.5000	-5.613	292.389	1.16995
695.0000	-5.82314	293.259	1.17936
694.5000	-6.04235	294.176	1.18926
694.0000	-6.26364	295.057	1.19875
693.5000	-6.30663	295.969	1.20855
693.0000	-6.47987	297.066	1.22031
692.5000	-6.62634	298.277	1.23328
692.0000	-6.69327	299.562	1.24699
691.5000	-6.81103	300.801	1.26017
691.0000	-6.98936	302.139	1.27437
690.5000	-7.19781	303.685	1.29071
690.0000	-7.40954	305.316	1.30791
689.5000	-7.61782	306.932	1.32487
689.0000	-7.88034	308.493	1.3412
688.5000	-8.31441	310.07	1.35765
688.0000	-8.54664	311.713	1.37471
687.5000	-8.7549	313.348	1.39163
687.0000	-9.05842	314.894	1.40757
686.5000	-9.38587	316.551	1.42459
686.0000	-9.60872	318.354	1.44304
685.5000	-9.76381	320.288	1.46275
685.0000	-9.77673	322.326	1.48341
684.5000	-9.84275	324.455	1.5049
684.0000	-9.85062	326.693	1.52736
683.5000	-9.96864	329.036	1.55077
683.0000	-10.086	331.339	1.57364
682.5000	-10.1641	333.458	1.59457
682.0000	-10.1942	335.512	1.61477
681.5000	-10.0244	337.537	1.63457
681.0000	-10.1089	339.445	1.65314
680.5000	-10.1062	341.17	1.66987
680.0000	-9.77945	342.694	1.68458
679.5000	-9.3917	344.135	1.69844
679.0000	-9.05935	345.59	1.71238
678.5000	-8.85461	346.863	1.72455
678.0000	-8.40101	347.921	1.73463
677.5000	-7.88232	348.845	1.7434
677.0000	-7.60482	349.73	1.75179
676.5000	-7.36235	350.506	1.75913
676.0000	-7.22383	350.986	1.76367
675.5000	-6.63792	351.273	1.76637
675.0000	-6.75457	351.432	1.76788
674.5000	-6.60917	351.441	1.76796
674.0000	-6.86002	351.135	1.76507
673.5000	-6.69963	350.609	1.76011
673.0000	-6.75288	349.92	1.75359
672.5000	-6.81641	349.129	1.7461
672.0000	-7.1742	348.054	1.73588
671.5000	-7.21004	346.8	1.72394
671.0000	-7.56471	345.397	1.71053
670.5000	-7.67808	343.912	1.69629
670.0000	-7.90398	342.168	1.67951
669.5000	-8.38887	340.223	1.66069
669.0000	-8.89477	338.175	1.64079
668.5000	-9.07114	336.113	1.62065
668.0000	-9.20526	333.842	1.59835
667.5000	-9.35663	331.485	1.57508
667.0000	-9.67632	329.108	1.55148
666.5000	-9.75941	326.813	1.52857
666.0000	-9.70551	324.425	1.5046
665.5000	-9.70571	321.928	1.47938
665.0000	-9.70022	319.462	1.45434
664.5000	-9.72824	317.101	1.43023
664.0000	-9.51466	314.661	1.40517
663.5000	-9.24027	312.217	1.37993
663.0000	-9.04509	309.812	1.35496
662.5000	-8.79076	307.581	1.33167
662.0000	-8.46294	305.357	1.30834
661.5000	-8.13778	303.204	1.28564
661.0000	-7.81848	301.136	1.26373
660.5000	-7.39641	299.208	1.24322
660.0000	-7.01246	297.283	1.22264
659.5000	-6.54912	295.458	1.20306
659.0000	-6.13907	293.743	1.18459
658.5000	-5.79663	292.129	1.16714
658.0000	-5.44906	290.53	1.14979
657.5000	-5.25697	289.032	1.13348
657.0000	-5.06441	287.672	1.11863
656.5000	-4.73821	286.35	1.10415
656.0000	-4.4933	285.072	1.09012
655.5000	-4.34933	283.87	1.07688
655.0000	-4.09144	282.801	1.06508
654.5000	-3.80143	281.731	1.05325
654.0000	-3.45808	280.732	1.04217
653.5000	-3.25895	279.819	1.03202
653.0000	-2.98974	279.027	1.02321
652.5000	-2.76915	278.274	1.01481
652.0000	-2.59639	277.599	1.00647
651.5000	-2.3307	277.05	0.999345
651.0000	-2.22766	276.581	0.993261
650.5000	-2.01813	276.163	0.987838
650.0000	-1.84608	275.82	0.983386
649.5000	-1.79171	275.591	0.980415
649.0000	-1.52337	275.375	0.97762
648.5000	-1.43031	275.198	0.975324
648.0000	-1.45867	275.07	0.973653
647.5000	-1.41513	274.99	0.972625
647.0000	-1.38979	274.913	0.971619
646.5000	-1.31054	274.858	0.970902
646.0000	-1.34198	274.818	0.970388
645.5000	-1.41401	274.769	0.969749
645.0000	-1.38628	274.735	0.969318
644.5000	-1.38836	274.703	0.968898
644.0000	-1.3894	274.696	0.968808
643.5000	-1.37441	274.669	0.968455
643.0000	-1.34106	274.631	0.967959
642.5000	-1.30765	274.615	0.967752
642.0000	-1.18426	274.601	0.967573
641.5000	-1.13079	274.584	0.96736
641.0000	-1.05072	274.553	0.966947
640.5000	-1.0068	274.511	0.966403
640.0000	-0.90583	274.464	0.965804
639.5000	-0.760907	274.415	0.965159
639.0000	-0.567459	274.356	0.964397
638.5000	-0.502373	274.276	0.963356
638.0000	-0.26459	274.178	0.962082
637.5000	-0.0867279	274.065	0.960621
637.0000	-0.0187408	273.939	0.958983
636.5000	0.00958862	273.802	0.957213
636.0000	-0.00103912	273.626	0.954925
635.5000	0.0287766	273.447	0.952604
635.0000	0.0489227	273.242	0.949947
634.5000	-0.0328033	273.011	0.946951
634.0000	-0.0336456	272.793	0.944124
633.5000	0.0512009	272.57	0.941237
633.0000	0.0799545	272.324	0.93804
632.5000	0.113034	272.072	0.934771
632.0000	0.105305	271.833	0.931669
631.5000	0.0781372	271.601	0.928659
631.0000	0.179761	271.334	0.925201
630.5000	0.212732	271.091	0.922057
630.0000	0.175304	270.847	0.918887
629.5000	0.213817	270.59	0.915556
629.0000	0.224547	270.356	0.912513
628.5000	0.280569	270.127	0.90955
628.0000	0.373256	269.861	0.906098
627.5000	0.411903	269.625	0.90304
627.0000	0.487091	269.399	0.900102
626.5000	0.442889	269.141	0.896765
626.0000	0.516809	268.926	0.893974
625.5000	0.529868	268.71	0.891171
625.0000	0.542453	268.436	0.88761
624.5000	0.494908	268.222	0.884844
624.0000	0.490768	268.004	0.882008
623.5000	0.426949	267.732	0.878481
623.0000	0.463686	267.504	0.875531
622.5000	0.416145	267.275	0.872555
622.0000	0.415514	266.999	0.868971
621.5000	0.390286	266.796	0.866344
621.0000	0.371143	266.585	0.863607
620.5000	0.248073	266.34	0.860436
620.0000	0.21734	266.129	0.857699
619.5000	0.260109	265.905	0.854786
619.0000	0.181194	265.627	0.851188
618.5000	0.200165	265.377	0.847943
618.0000	0.1756	265.096	0.8443
617.5000	0.163741	264.79	0.840327
617.0000	0.252179	264.507	0.836657
616.5000	0.273309	264.18	0.832412
616.0000	0.352061	263.851	0.828152
615.5000	0.476544	263.548	0.824223
615.0000	0.460136	263.203	0.819746
614.5000	0.511949	262.881	0.815566
614.0000	0.640659	262.549	0.811262
613.5000	0.732173	262.157	0.806171
613.0000	0.796188	261.824	0.801852
612.5000	0.772244	261.473	0.797306
612.0000	0.870032	261.095	0.792406
611.5000	0.950105	260.757	0.78802
611.0000	1.12717	260.382	0.783155
610.5000	1.20054	260.016	0.778411
610.0000	1.31789	259.683	0.774093
609.5000	1.40965	259.284	0.76891
609.0000	1.52592	258.931	0.76433
608.5000	1.65925	258.565	0.759588
608.0000	1.70167	258.16	0.754336
607.5000	1.77692	257.83	0.750051
607.0000	1.83156	257.461	0.745269
606.5000	1.9007	257.12	0.740849
606.0000	2.00447	256.819	0.736946
605.5000	2.08983	256.477	0.732512
605.0000	2.21031	256.197	0.728873
604.5000	2.43246	255.915	0.725218
604.0000	2.55716	255.625	0.721456
603.5000	2.67087	255.409	0.71865
603.0000	2.8066	255.125	0.714968
602.5000	2.9799	254.892	0.711955
602.0000	3.11048	254.665	0.709008
601.5000	3.20172	254.434	0.706003
601.0000	3.26864	254.255	0.703686
600.5000	3.42181	254.032	0.700801
600.0000	3.57043	253.834	0.698221
599.5000	3.74181	253.68	0.696229
599.0000	3.8861	253.497	0.693856
598.5000	4.00874	253.383	0.692381
598.0000	4.07659	253.213	0.690169
597.5000	4.16422	253.073	0.688356
597.0000	4.24565	252.953	0.686806
596.5000	4.39301	252.824	0.685131
596.0000	4.41882	252.715	0.683715
595.5000	4.50677	252.583	0.682005
595.0000	4.51217	252.457	0.68037
594.5000	4.65012	252.349	0.678961
594.0000	4.70893	252.224	0.677344
593.5000	4.68402	252.117	0.675955
593.0000	4.6132	251.974	0.674098
592.5000	4.64474	251.869	0.672745
592.0000	4.62479	251.737	0.671026
591.5000	4.64598	251.616	0.669463
591.0000	4.64144	251.485	0.667763
590.5000	4.67862	251.346	0.665952
590.0000	4.74088	251.23	0.664454
589.5000	4.74268	251.094	0.662685
589.0000	4.7108	250.961	0.660966
588.5000	4.73171	250.827	0.659226
588.0000	4.79323	250.702	0.657606
587.5000	4.76245	250.575	0.655958
587.0000	4.67983	250.446	0.654282
586.5000	4.74374	250.323	0.652693
586.0000	4.81337	250.196	0.651048
585.5000	4.75863	250.06	0.649282
585.0000	4.74839	249.93	0.647589
584.5000	4.71519	249.792	0.645802
584.0000	4.69698	249.633	0.643736
583.5000	4.67588	249.473	0.641667
583.0000	4.5836	249.314	0.639606
582.5000	4.51332	249.155	0.637538
582.0000	4.51646	248.988	0.635381
581.5000	4.54282	248.831	0.633339
581.0000	4.59968	248.67	0.631246
580.5000	4.70889	248.521	0.629318
580.0000	4.72886	248.353	0.627134
579.5000	4.76858	248.204	0.625209
579.0000	4.82509	248.045	0.623139
578.5000	4.85775	247.897	0.621221
578.0000	4.8668	247.733	0.619096
577.5000	4.86292	247.584	0.617165
577.0000	4.85022	247.438	0.615269
576.5000	4.93123	247.309	0.613594
576.0000	4.9698	247.18	0.611922
575.5000	4.9818	247.038	0.610085
575.0000	4.9968	246.914	0.608469
574.5000	4.93245	246.793	0.6069
574.0000	4.97664	246.681	0.605455
573.5000	4.99486	246.54	0.60363
573.0000	4.99507	246.426	0.602151
572.5000	5.06443	246.298	0.600485
572.0000	5.1107	246.204	0.599268
571.5000	5.1428	246.085	0.597721
571.0000	5.16919	246.007	0.596711
570.5000	5.16362	245.912	0.595485
570.0000	5.22409	245.874	0.594992
569.5000	5.26969	245.803	0.594064
569.0000	5.2548	245.768	0.593608
568.5000	5.30887	245.711	0.592867
568.0000	5.39646	245.694	0.592658
567.5000	5.40338	245.635	0.591881
567.0000	5.4471	245.609	0.591547
566.5000	5.4479	245.562	0.59094
566.0000	5.45216	245.555	0.590847
565.5000	5.44531	245.521	0.590401
565.0000	5.46132	245.497	0.5901
564.5000	5.46508	245.474	0.589801
564.0000	5.58233	245.485	0.589934
563.5000	5.60376	245.475	0.589815
563.0000	5.61547	245.479	0.589866
562.5000	5.71863	245.507	0.590232
562.0000	5.81787	245.546	0.59073
561.5000	5.92719	245.602	0.591461
561.0000	5.9663	245.648	0.592056
560.5000	5.988	245.737	0.593213
560.0000	6.09676	245.793	0.59394
559.5000	6.25715	245.886	0.595143
559.0000	6.25005	245.956	0.596053
558.5000	6.2717	246.059	0.597388
558.0000	6.31163	246.151	0.598584
557.5000	6.3669	246.273	0.600165
557.0000	6.44802	246.387	0.601643
556.5000	6.44662	246.51	0.603237
556.0000	6.40917	246.655	0.605118
555.5000	6.49449	246.795	0.606935
555.0000	6.58001	246.973	0.60924
554.5000	6.65009	247.127	0.611232
554.0000	6.68914	247.321	0.61375
553.5000	6.71685	247.508	0.616172
553.0000	6.75525	247.696	0.618618
552.5000	6.79156	247.889	0.621116
552.0000	6.82874	248.06	0.623338
551.5000	6.88014	248.23	0.625547
551.0000	6.89178	248.398	0.627721
550.5000	6.93839	248.56	0.629817
550.0000	6.98234	248.708	0.631743
549.5000	7.01401	248.852	0.633607
549.0000	7.01679	248.986	0.635355
548.5000	6.99255	249.116	0.637035
548.0000	6.9789	249.231	0.63852
547.5000	7.00844	249.322	0.639701
547.0000	7.03416	249.419	0.640963
546.5000	7.05519	249.519	0.642263
546.0000	7.09882	249.611	0.643454
545.5000	7.1474	249.692	0.644509
545.0000	7.10865	249.779	0.645636
544.5000	7.13242	249.88	0.646949
544.0000	7.08378	249.981	0.648249
543.5000	7.04307	250.096	0.649745
543.0000	6.9423	250.21	0.651228
542.5000	6.87774	250.326	0.65273
542.0000	6.82724	250.468	0.654566
541.5000	6.83661	250.588	0.656123
541.0000	6.83785	250.701	0.657596
540.5000	6.83909	250.808	0.658976
540.0000	6.84953	250.882	0.659939
539.5000	6.89105	250.955	0.66089
539.0000	6.9457	251.003	0.661508
538.5000	6.98918	251.033	0.6619
538.0000	6.95591	251.077	0.662469
537.5000	6.90293	251.106	0.662849
537.0000	6.81684	251.135	0.663218
536.5000	6.8006	251.166	0.663618
536.0000	6.7536	251.192	0.663959
535.5000	6.66467	251.227	0.66442
535.0000	6.60854	251.255	0.664777
534.5000	6.59041	251.277	0.665056
534.0000	6.57322	251.315	0.665558
533.5000	6.58644	251.344	0.665938
533.0000	6.56639	251.37	0.666267
532.5000	6.5343	251.401	0.666665
532.0000	6.50787	251.438	0.667156
531.5000	6.48029	251.452	0.667338
531.0000	6.41102	251.486	0.66777
530.5000	6.27773	251.533	0.668381
530.0000	6.20077	251.567	0.66882
529.5000	6.11118	251.621	0.669528
529.0000	6.03253	251.699	0.670533
528.5000	5.91127	251.775	0.671523
528.0000	5.74595	251.854	0.672544
527.5000	5.6958	251.945	0.673729
527.0000	5.59832	252.029	0.67482
526.5000	5.54602	252.103	0.675775
526.0000	5.39786	252.193	0.676939
525.5000	5.36457	252.276	0.678021
525.0000	5.40287	252.344	0.678899
524.5000	5.38022	252.446	0.680223
524.0000	5.33253	252.556	0.68165
523.5000	5.20848	252.658	0.682977
523.0000	5.10165	252.774	0.684477
522.5000	5.02404	252.9	0.686115
522.0000	4.83628	253.025	0.687737
521.5000	4.6606	253.156	0.689434
521.0000	4.55367	253.284	0.691093
520.5000	4.48741	253.412	0.692755
520.0000	4.35196	253.557	0.694638
519.5000	4.26299	253.702	0.696512
519.0000	4.1965	253.858	0.698532
518.5000	4.1949	254.018	0.700607
518.0000	4.14644	254.167	0.702544
517.5000	4.08127	254.322	0.70456
517.0000	4.0473	254.485	0.706668
516.5000	4.01244	254.637	0.708643
516.0000	3.83443	254.791	0.710639
515.5000	3.71508	254.951	0.712718
515.0000	3.50161	255.142	0.715185
514.5000	3.33666	255.334	0.717681
514.0000	3.20888	255.547	0.720442
513.5000	3.04019	255.768	0.723311
513.0000	2.98402	256.004	0.726375
512.5000	2.95462	256.26	0.729692
512.0000	2.89082	256.497	0.732772
511.5000	2.82021	256.723	0.7357
511.0000	2.69977	256.95	0.738637
510.5000	2.60615	257.166	0.741438
510.0000	2.45478	257.388	0.744327
509.5000	2.31887	257.59	0.746943
509.0000	2.10978	257.776	0.749357
508.5000	1.98741	257.959	0.751734
508.0000	1.88757	258.137	0.754039
507.5000	1.76773	258.315	0.756344
507.0000	1.69563	258.49	0.758614
506.5000	1.60925	258.657	0.760783
506.0000	1.47853	258.82	0.762892
505.5000	1.37011	258.994	0.765149
505.0000	1.22917	259.181	0.767582
504.5000	1.07677	259.383	0.770192
504.0000	0.927428	259.603	0.77305
503.5000	0.76842	259.834	0.776047
503.0000	0.550226	260.078	0.77921
502.5000	0.387381	260.307	0.782184
502.0000	0.175793	260.52	0.784942
501.5000	-0.0266327	260.729	0.787652
501.0000	-0.172571	260.914	0.790059
500.5000	-0.407043	261.07	0.792072
500.0000	-0.649141	261.2	0.793761
499.5000	-0.844115	261.294	0.794984
499.0000	-1.10916	261.359	0.795832
498.5000	-1.42122	261.391	0.796244
498.0000	-1.67858	261.367	0.795928
497.5000	-1.95258	261.282	0.794831
497.0000	-2.18875	261.132	0.792879
496.5000	-2.4077	260.894	0.789798
496.0000	-2.6809	260.57	0.785596
495.5000	-2.86896	260.178	0.780503
495.0000	-3.10609	259.75	0.774953
494.5000	-3.36046	259.327	0.769473
494.0000	-3.56071	258.976	0.764913
493.5000	-3.8154	258.745	0.761917
493.0000	-3.96189	258.688	0.761187
492.5000	-4.16391	258.803	0.76268
492.0000	-4.38719	259.075	0.766197
491.5000	-4.47983	259.44	0.770935
491.0000	-4.70191	259.836	0.776073
490.5000	-4.83578	260.196	0.780747
490.0000	-5.06363	260.455	0.784102
489.5000	-5.38797	260.575	0.785658
489.0000	-5.59733	260.561	0.785472
488.5000	-5.78933	260.407	0.783473
488.0000	-6.01274	260.134	0.779939
487.5000	-6.15516	259.745	0.774887
487.0000	-6.31004	259.267	0.768698
486.5000	-6.39699	258.705	0.761409
486.0000	-6.46836	258.09	0.753432
485.5000	-6.57617	257.448	0.745106
485.0000	-6.7382	256.813	0.736869
484.5000	-6.89546	256.237	0.729392
484.0000	-6.98917	255.783	0.723508
483.5000	-7.14673	255.474	0.719499
483.0000	-7.2455	255.351	0.717908
482.5000	-7.22457	255.432	0.718949
482.0000	-7.15536	255.71	0.722558
481.5000	-7.10393	256.142	0.728155
481.0000	-7.04018	256.681	0.735148
480.5000	-7.02249	257.262	0.742682
480.0000	-6.96951	257.825	0.749988
479.5000	-6.92384	258.315	0.756341
479.0000	-6.92602	258.672	0.760977
478.5000	-6.88027	258.868	0.763518
478.0000	-6.81095	258.88	0.763672
477.5000	-6.73103	258.675	0.761015
477.0000	-6.68632	258.281	0.755909
476.5000	-6.62799	257.74	0.748887
476.0000	-6.63116	257.122	0.740877
475.5000	-6.58352	256.527	0.733162
475.0000	-6.54958	256.083	0.727392
474.5000	-6.51825	255.819	0.723977
474.0000	-6.49092	255.788	0.723577
473.5000	-6.48369	255.955	0.725736
473.0000	-6.35645	256.254	0.729608
472.5000	-6.12953	256.571	0.733724
472.0000	-6.00249	256.786	0.736509
471.5000	-5.89788	256.86	0.737473
471.0000	-5.81513	256.819	0.736941
470.5000	-5.62134	256.725	0.735724
470.0000	-5.43118	256.669	0.734991
469.5000	-5.33073	256.768	0.736279
469.0000	-5.28263	257.121	0.740858
468.5000	-5.11285	257.779	0.74939
468.0000	-4.92581	258.697	0.761301
467.5000	-4.73796	259.821	0.775876
467.0000	-4.59386	261.028	0.791531
466.5000	-4.36669	262.218	0.806967
466.0000	-4.11627	263.271	0.820628
465.5000	-3.84077	264.153	0.832069
465.0000	-3.60088	264.86	0.841236
464.5000	-3.38855	265.441	0.848764
464.0000	-3.02396	265.944	0.855289
463.5000	-2.70208	266.464	0.862042
463.0000	-2.46059	267.065	0.869832
462.5000	-2.23974	267.751	0.878732
462.0000	-2.01765	268.485	0.888249
461.5000	-1.65794	269.227	0.897876
461.0000	-1.19452	269.94	0.907126
460.5000	-0.803047	270.576	0.915376
460.0000	-0.383717	271.133	0.922596
459.5000	0.0538727	271.624	0.928968
459.0000	0.525632	272.087	0.934975
458.5000	1.04066	272.561	0.94112
458.0000	1.4958	273.091	0.947995
457.5000	1.99996	273.676	0.955582
457.0000	2.43643	274.286	0.963488
456.5000	2.97021	274.874	0.971112
456.0000	3.60124	275.4	0.977943
455.5000	4.2713	275.836	0.983588
455.0000	4.95071	276.146	0.987618
454.5000	5.47725	276.314	0.989793
454.0000	6.05586	276.387	0.990739
453.5000	6.77635	276.406	0.990988
453.0000	7.52225	276.43	0.991301
452.5000	8.17064	276.536	0.992677
452.0000	8.8036	276.822	0.996383
451.5000	9.55957	277.352	1.00326
451.0000	10.2889	278.128	1.01319
450.5000	10.9926	279.127	1.02432
450.0000	11.6651	280.343	1.03784
449.5000	12.3023	281.688	1.05277
449.0000	13.0195	283.054	1.06788
448.5000	13.6957	284.32	1.08184
448.0000	14.4022	285.462	1.09441
447.5000	14.9575	286.456	1.10532
447.0000	15.4216	287.306	1.11463
446.5000	15.7715	288.031	1.12256
446.0000	15.9695	288.674	1.12957
445.5000	16.1813	289.275	1.13613
445.0000	16.2805	289.863	1.14253
444.5000	16.2651	290.415	1.14854
444.0000	16.1213	290.96	1.15446
443.5000	15.8229	291.468	1.15997
443.0000	15.4946	291.938	1.16507
442.5000	15.0566	292.362	1.16966
442.0000	14.4992	292.739	1.17374
441.5000	13.8989	293.046	1.17706
441.0000	13.2217	293.302	1.17982
440.5000	12.491	293.467	1.1816
440.0000	11.8469	293.593	1.18297
439.5000	11.1368	293.68	1.18391
439.0000	10.2953	293.756	1.18472
438.5000	9.4093	293.815	1.18536
438.0000	8.66857	293.849	1.18573
437.5000	7.99671	293.861	1.18586
437.0000	7.40736	293.832	1.18555
436.5000	6.66992	293.727	1.18442
436.0000	6.17124	293.526	1.18224
435.5000	5.86351	293.233	1.17908
435.0000	5.5238	292.841	1.17484
434.5000	5.15089	292.363	1.16967
434.0000	4.84873	291.806	1.16364
433.5000	4.60069	291.193	1.15698
433.0000	4.40116	290.537	1.14986
432.5000	4.23827	289.858	1.14248
432.0000	4.04844	289.156	1.13484
431.5000	4.03505	288.441	1.12704
431.0000	3.84118	287.723	1.11919
430.5000	3.77522	287.006	1.11135
430.0000	3.90332	286.292	1.10351
429.5000	3.87143	285.6	1.09592
429.0000	3.94218	284.903	1.08825
428.5000	3.96624	284.221	1.08075
428.0000	3.95913	283.557	1.07343
427.5000	4.07675	282.916	1.06635
427.0000	4.20341	282.306	1.0596
426.5000	4.26823	281.716	1.05308
426.0000	4.42093	281.159	1.0469
425.5000	4.37738	280.626	1.04099
425.0000	4.50237	280.107	1.03522
424.5000	4.77984	279.598	1.02957
424.0000	4.84507	279.091	1.02393
423.5000	4.91452	278.585	1.01829
423.0000	4.97309	278.063	1.01245
422.5000	5.0472	277.534	1.00562
422.0000	5.23497	277.018	0.998922
421.5000	5.34391	276.524	0.992516
421.0000	5.38006	276.069	0.986618
420.5000	5.48045	275.697	0.981784
420.0000	5.59707	275.391	0.977818
419.5000	5.77966	275.147	0.974653
419.0000	5.92526	274.943	0.972005
418.5000	6.01266	274.749	0.969491
418.0000	6.03897	274.535	0.966713
417.5000	6.08427	274.288	0.963521
417.0000	6.15544	273.975	0.959456
416.5000	6.20399	273.595	0.954526
416.0000	6.34561	273.164	0.948933
415.5000	6.4315	272.676	0.942611
415.0000	6.52996	272.136	0.935605
414.5000	6.58633	271.572	0.92829
414.0000	6.62822	270.971	0.920489
413.5000	6.70341	270.368	0.912669
413.0000	6.70366	269.747	0.904614
412.5000	6.60443	269.106	0.896299
412.0000	6.59641	268.454	0.887842
411.5000	6.54314	267.807	0.879458
411.0000	6.5464	267.153	0.870971
410.5000	6.55047	266.485	0.862314
410.0000	6.58571	265.801	0.853445
409.5000	6.5827	265.112	0.844502
409.0000	6.54739	264.402	0.835289
408.5000	6.57102	263.694	0.826115
408.0000	6.56043	262.966	0.816673
407.5000	6.488	262.234	0.807171
407.0000	6.39842	261.483	0.797432
406.5000	6.31066	260.74	0.787792
406.0000	6.26131	259.995	0.778133
405.5000	6.18327	259.266	0.768674
405.0000	6.04696	258.542	0.759286
404.5000	5.9214	257.826	0.750002
404.0000	5.90407	257.124	0.740898
403.5000	5.87375	256.433	0.731937
403.0000	5.80983	255.748	0.723046
402.5000	5.69367	255.071	0.714269
402.0000	5.65197	254.387	0.705395
401.5000	5.65781	253.714	0.696666
401.0000	5.67152	253.051	0.688073
400.5000	5.6119	252.403	0.679663
400.0000	5.54594	251.798	0.671818
399.5000	5.47123	251.224	0.664378
399.0000	5.47513	250.697	0.657546
398.5000	5.38305	250.232	0.65151
398.0000	5.25424	249.821	0.646182
397.5000	5.16172	249.472	0.641653
397.0000	5.08147	249.168	0.637705
396.5000	5.02632	248.902	0.634262
396.0000	4.9618	248.664	0.631172
395.5000	4.94533	248.445	0.628329
395.0000	4.92899	248.238	0.625647
394.5000	4.90309	248.028	0.622927
394.0000	4.85009	247.815	0.620166
393.5000	4.8349	247.597	0.617329
393.0000	4.77546	247.381	0.614533
392.5000	4.67103	247.161	0.611682
392.0000	4.55265	246.936	0.608758
391.5000	4.39898	246.717	0.605921
391.0000	4.28331	246.495	0.603041
390.5000	4.18335	246.281	0.600266
390.0000	4.06075	246.058	0.597373
389.5000	3.88103	245.833	0.594449
389.0000	3.76778	245.6	0.591433
388.5000	3.63898	245.356	0.58827
388.0000	3.55938	245.107	0.585036
387.5000	3.44107	244.846	0.581648
387.0000	3.29998	244.581	0.578218
386.5000	3.16923	244.311	0.574716
386.0000	3.07844	244.026	0.571017
385.5000	2.94603	243.728	0.567157
385.0000	2.79668	243.428	0.563259
384.5000	2.61125	243.116	0.559216
384.0000	2.51944	242.793	0.55503
383.5000	2.44578	242.462	0.550738
383.0000	2.3596	242.113	0.546207
382.5000	2.24191	241.751	0.541512
382.0000	2.20236	241.383	0.536734
381.5000	2.16867	240.996	0.53172
381.0000	2.10854	240.603	0.526615
380.5000	1.98512	240.202	0.521424
380.0000	1.91522	239.79	0.516079
379.5000	1.84522	239.375	0.510699
379.0000	1.74141	238.958	0.505283
378.5000	1.71918	238.536	0.499812
378.0000	1.67761	238.115	0.494352
377.5000	1.62998	237.689	0.488826
377.0000	1.57207	237.258	0.483237
376.5000	1.54098	236.823	0.477595
376.0000	1.58563	236.377	0.471815
375.5000	1.61703	235.925	0.465946
375.0000	1.59237	235.465	0.459978
374.5000	1.57579	235.004	0.454003
374.0000	1.57105	234.535	0.447921
373.5000	1.58613	234.075	0.44195
373.0000	1.54248	233.611	0.435939
372.5000	1.51259	233.157	0.430049
372.0000	1.50966	232.717	0.424338
371.5000	1.51847	232.289	0.418784
371.0000	1.5134	231.873	0.413391
370.5000	1.51708	231.47	0.40816
370.0000	1.53746	231.08	0.403114
369.5000	1.55981	230.7	0.39818
369.0000	1.55657	230.333	0.393416
368.5000	1.5365	229.973	0.388752
368.0000	1.53543	229.624	0.384228
367.5000	1.53844	229.289	0.379875
367.0000	1.5573	228.961	0.375621
366.5000	1.52655	228.647	0.371551
366.0000	1.52349	228.347	0.367657
365.5000	1.54765	228.049	0.363798
365.0000	1.53797	227.774	0.360232
364.5000	1.54616	227.509	0.356787
364.0000	1.57992	227.254	0.353484
363.5000	1.6397	227.013	0.350354
363.0000	1.65085	226.78	0.347332
362.5000	1.68739	226.558	0.344452
362.0000	1.6959	226.349	0.341748
361.5000	1.73124	226.142	0.339068
361.0000	1.72854	225.947	0.336534
360.5000	1.72889	225.764	0.334163
360.0000	1.77448	225.6	0.332029
359.5000	1.83141	225.451	0.330102
359.0000	1.83725	225.311	0.328282
358.5000	1.87513	225.177	0.326546
358.0000	1.9012	225.059	0.325011
357.5000	1.94694	224.955	0.323666
357.0000	1.97211	224.852	0.322328
356.5000	1.9491	224.769	0.321254
356.0000	1.98678	224.688	0.320201
355.5000	2.03803	224.627	0.319413
355.0000	2.06323	224.591	0.318949
354.5000	2.1751	224.57	0.31867
354.0000	2.23577	224.561	0.318552
353.5000	2.36646	224.572	0.318702
353.0000	2.4814	224.602	0.319093
352.5000	2.56604	224.647	0.319673
352.0000	2.66681	224.713	0.320522
351.5000	2.73408	224.791	0.321536
351.0000	2.84289	224.882	0.322723
350.5000	2.98435	225	0.324253
350.0000	3.12815	225.126	0.325879

##### Extended Information
[Comments]
Sample name	cm
Comment
User
Division
Company	MTA-SZBK

[Detailed Information]
Creation date	2/4/2016 7:24 PM

Data array type	Linear data array * 3
Horizontal axis	Wavelength [nm]
Vertical axis(1)	CD [mdeg]
Vertical axis(2)	HT [V]
Vertical axis(3)	Abs
Start	750 nm
End	350 nm
Data interval	0.5 nm
Data points	801     

[Measurement Information]
Instrument Name	J-815
Model Name	J-815
Serial No.	B042361168

Accessory	Standard
Accessory S/N	B042361168
  Cell Length	10 mm

Measurement date	2/4/2016 7:22 PM

Photometric Mode	CD, HT, Abs
Measure Range	750 - 350 nm
Data pitch	0.5 nm
Sensitivity	Standard
D.I.T.	2 sec
Bandwidth	3.00 nm
Start Mode	Immediately
Scanning Speed	100 nm/min
Baseline Correction	None
Shutter Control	Auto
CD Detector	PMT
PMT Voltage	Auto

