TITLE	wt
DATA TYPE	
ORIGIN	JASCO
OWNER	
DATE	16/02/04
TIME	17:54:03
SPECTROMETER/DATA SYSTEM	
LOCALE	1033
RESOLUTION	
DELTAX	-0.5
XUNITS	NANOMETERS
YUNITS	CD [mdeg]
Y2UNITS	HT [V]
Y3UNITS	ABSORBANCE
FIRSTX	  750.0000
LASTX	  350.0000
NPOINTS	     801
FIRSTY	    -3.39555
MAXY	    19.27388
MINY	    -9.97227
XYDATA
750.0000	-3.39555	293.54	1.18239
749.5000	-3.33903	293.253	1.17928
749.0000	-3.29874	292.914	1.17562
748.5000	-3.32206	292.516	1.17131
748.0000	-3.34931	292.077	1.16656
747.5000	-3.41217	291.608	1.16149
747.0000	-3.41959	291.105	1.15602
746.5000	-3.34487	290.608	1.15063
746.0000	-3.26672	290.122	1.14535
745.5000	-3.29051	289.675	1.14048
745.0000	-3.33429	289.265	1.13601
744.5000	-3.21283	288.909	1.13213
744.0000	-3.07534	288.597	1.12873
743.5000	-3.03836	288.356	1.1261
743.0000	-3.11612	288.151	1.12386
742.5000	-3.1753	287.974	1.12192
742.0000	-3.11153	287.794	1.11996
741.5000	-3.04387	287.595	1.11778
741.0000	-3.16022	287.342	1.11501
740.5000	-3.17789	287.01	1.11137
740.0000	-3.12225	286.578	1.10665
739.5000	-3.07364	286.051	1.10087
739.0000	-2.99762	285.416	1.09389
738.5000	-2.94642	284.684	1.08585
738.0000	-2.90577	283.909	1.07731
737.5000	-2.75248	283.095	1.06833
737.0000	-2.70033	282.428	1.06095
736.5000	-2.58157	281.907	1.05519
736.0000	-2.46566	281.566	1.05141
735.5000	-2.40509	281.411	1.04969
735.0000	-2.3538	281.432	1.04993
734.5000	-2.36174	281.54	1.05112
734.0000	-2.44512	281.749	1.05343
733.5000	-2.48444	282.006	1.05629
733.0000	-2.56447	282.25	1.05899
732.5000	-2.62375	282.462	1.06133
732.0000	-2.6356	282.644	1.06334
731.5000	-2.66031	282.768	1.06471
731.0000	-2.56661	282.908	1.06626
730.5000	-2.53263	283.076	1.06812
730.0000	-2.53243	283.231	1.06983
729.5000	-2.50841	283.365	1.0713
729.0000	-2.52126	283.477	1.07254
728.5000	-2.49747	283.507	1.07287
728.0000	-2.52657	283.488	1.07266
727.5000	-2.58231	283.452	1.07227
727.0000	-2.5598	283.371	1.07137
726.5000	-2.50143	283.242	1.06995
726.0000	-2.39276	283.07	1.06805
725.5000	-2.37374	282.797	1.06503
725.0000	-2.36361	282.529	1.06207
724.5000	-2.28751	282.265	1.05914
724.0000	-2.21308	281.961	1.05579
723.5000	-2.184	281.621	1.05203
723.0000	-2.21285	281.252	1.04794
722.5000	-2.19719	280.758	1.04245
722.0000	-2.21492	280.312	1.03749
721.5000	-2.22401	279.863	1.03251
721.0000	-2.21565	279.401	1.02736
720.5000	-2.19555	278.94	1.02223
720.0000	-2.23176	278.46	1.0168
719.5000	-2.18131	277.91	1.01016
719.0000	-2.25311	277.489	1.00503
718.5000	-2.22882	277.079	0.99971
718.0000	-2.16574	276.703	0.994838
717.5000	-2.12907	276.359	0.990382
717.0000	-2.04897	275.972	0.985351
716.5000	-2.03474	275.672	0.981466
716.0000	-1.98833	275.508	0.979333
715.5000	-1.91397	275.415	0.978138
715.0000	-1.85869	275.405	0.978007
714.5000	-1.85204	275.462	0.97874
714.0000	-1.87336	275.516	0.979441
713.5000	-1.84762	275.739	0.982334
713.0000	-1.8252	276.004	0.985767
712.5000	-1.80466	276.28	0.989355
712.0000	-1.85573	276.566	0.993059
711.5000	-1.87043	276.759	0.99557
711.0000	-1.89839	276.954	0.998088
710.5000	-1.93114	277.185	1.00109
710.0000	-2.01261	277.389	1.00373
709.5000	-2.05742	277.568	1.00606
709.0000	-2.16765	277.684	1.00756
708.5000	-2.1686	277.75	1.00842
708.0000	-2.21399	277.895	1.01019
707.5000	-2.24524	278.036	1.0119
707.0000	-2.25404	278.149	1.01326
706.5000	-2.25391	278.206	1.01396
706.0000	-2.34174	278.188	1.01376
705.5000	-2.36296	278.248	1.01452
705.0000	-2.49195	278.33	1.01544
704.5000	-2.60547	278.421	1.01645
704.0000	-2.76856	278.482	1.01713
703.5000	-2.93528	278.503	1.01737
703.0000	-3.01296	278.628	1.01876
702.5000	-3.08794	278.805	1.02074
702.0000	-3.1872	279.002	1.02293
701.5000	-3.30621	279.184	1.02495
701.0000	-3.41037	279.325	1.02652
700.5000	-3.46582	279.566	1.0292
700.0000	-3.47376	279.872	1.03261
699.5000	-3.58997	280.21	1.03637
699.0000	-3.69875	280.541	1.04005
698.5000	-3.76069	280.84	1.04336
698.0000	-3.78215	281.261	1.04803
697.5000	-3.87517	281.76	1.05357
697.0000	-4.01789	282.29	1.05943
696.5000	-4.1388	282.785	1.06491
696.0000	-4.17748	283.28	1.07037
695.5000	-4.23493	283.902	1.07723
695.0000	-4.33142	284.618	1.08511
694.5000	-4.39715	285.373	1.09343
694.0000	-4.47615	286.091	1.10131
693.5000	-4.59867	286.836	1.10947
693.0000	-4.71613	287.765	1.11964
692.5000	-4.93034	288.8	1.13093
692.0000	-5.19501	289.905	1.14298
691.5000	-5.35712	290.967	1.15452
691.0000	-5.56661	292.134	1.16717
690.5000	-5.72537	293.51	1.18205
690.0000	-5.98002	294.954	1.19762
689.5000	-6.26031	296.393	1.21308
689.0000	-6.46705	297.799	1.22813
688.5000	-6.73487	299.243	1.24355
688.0000	-6.98809	300.764	1.25974
687.5000	-7.33479	302.274	1.27576
687.0000	-7.70656	303.701	1.29084
686.5000	-8.02793	305.228	1.30693
686.0000	-8.27605	306.878	1.32425
685.5000	-8.61705	308.642	1.3427
685.0000	-8.95333	310.497	1.36203
684.5000	-9.18889	312.417	1.38194
684.0000	-9.26294	314.456	1.403
683.5000	-9.31128	316.612	1.42515
683.0000	-9.48577	318.748	1.44699
682.5000	-9.69258	320.722	1.46707
682.0000	-9.72434	322.641	1.48652
681.5000	-9.75395	324.557	1.50584
681.0000	-9.8536	326.377	1.52411
680.5000	-9.97227	328.015	1.5405
680.0000	-9.86189	329.476	1.55506
679.5000	-9.72539	330.859	1.56879
679.0000	-9.57329	332.246	1.58252
678.5000	-9.34064	333.474	1.59463
678.0000	-9.09287	334.48	1.60454
677.5000	-8.67474	335.366	1.61323
677.0000	-8.39265	336.218	1.62158
676.5000	-8.25951	336.95	1.62875
676.0000	-7.92991	337.411	1.63324
675.5000	-7.54852	337.693	1.636
675.0000	-7.33812	337.849	1.63752
674.5000	-7.15176	337.858	1.63761
674.0000	-7.16521	337.551	1.63462
673.5000	-7.16727	337.047	1.6297
673.0000	-7.12954	336.405	1.62343
672.5000	-7.25732	335.662	1.61616
672.0000	-7.30992	334.65	1.60623
671.5000	-7.35436	333.45	1.59442
671.0000	-7.6355	332.116	1.58126
670.5000	-7.85654	330.704	1.56727
670.0000	-7.95634	329.02	1.55055
669.5000	-8.07385	327.145	1.53183
669.0000	-8.28738	325.176	1.51209
668.5000	-8.48642	323.182	1.49201
668.0000	-8.5926	321.017	1.4701
667.5000	-8.68603	318.773	1.44727
667.0000	-8.76262	316.52	1.42423
666.5000	-8.86021	314.356	1.40199
666.0000	-8.92517	312.101	1.37869
665.5000	-8.97654	309.757	1.35435
665.0000	-9.12914	307.446	1.33022
664.5000	-9.06811	305.234	1.30702
664.0000	-8.78951	302.952	1.28294
663.5000	-8.56758	300.674	1.25879
663.0000	-8.36768	298.443	1.23502
662.5000	-8.02802	296.378	1.21292
662.0000	-7.67959	294.327	1.19086
661.5000	-7.2908	292.34	1.1694
661.0000	-6.90265	290.442	1.14881
660.5000	-6.63287	288.684	1.12967
660.0000	-6.2379	286.93	1.11049
659.5000	-5.81653	285.271	1.09229
659.0000	-5.48858	283.71	1.07511
658.5000	-5.08603	282.255	1.05903
658.0000	-4.78119	280.81	1.04302
657.5000	-4.49516	279.455	1.02796
657.0000	-4.12508	278.214	1.01357
656.5000	-3.81321	277.014	0.998868
656.0000	-3.50337	275.856	0.983846
655.5000	-3.21962	274.752	0.969529
655.0000	-3.00156	273.768	0.956776
654.5000	-2.74563	272.778	0.943933
654.0000	-2.54899	271.848	0.931871
653.5000	-2.39695	270.996	0.920822
653.0000	-2.24632	270.245	0.911074
652.5000	-2.08747	269.52	0.901671
652.0000	-1.91775	268.873	0.893285
651.5000	-1.69648	268.34	0.886366
651.0000	-1.58076	267.877	0.88036
650.5000	-1.46822	267.467	0.87505
650.0000	-1.33159	267.133	0.870719
649.5000	-1.23719	266.897	0.867659
649.0000	-1.09644	266.683	0.864874
648.5000	-0.974052	266.509	0.862623
648.0000	-0.898541	266.376	0.860903
647.5000	-0.771988	266.293	0.859818
647.0000	-0.655216	266.206	0.858686
646.5000	-0.566528	266.135	0.857772
646.0000	-0.503082	266.087	0.857152
645.5000	-0.500317	266.036	0.856492
645.0000	-0.548202	265.99	0.855886
644.5000	-0.487249	265.962	0.855524
644.0000	-0.444917	265.943	0.855278
643.5000	-0.332985	265.905	0.85479
643.0000	-0.251273	265.864	0.854257
642.5000	-0.176983	265.837	0.853905
642.0000	-0.10909	265.804	0.853476
641.5000	-0.00880585	265.783	0.853209
641.0000	0.0733353	265.748	0.852747
640.5000	0.0631882	265.723	0.852423
640.0000	0.0649322	265.698	0.8521
639.5000	0.169694	265.67	0.851742
639.0000	0.225963	265.641	0.851358
638.5000	0.309789	265.588	0.85067
638.0000	0.354588	265.507	0.849631
637.5000	0.453188	265.405	0.848302
637.0000	0.523307	265.281	0.846696
636.5000	0.58407	265.137	0.844823
636.0000	0.592551	264.953	0.842439
635.5000	0.63194	264.764	0.839987
635.0000	0.662244	264.565	0.837404
634.5000	0.713553	264.337	0.834455
634.0000	0.734436	264.126	0.83172
633.5000	0.77173	263.914	0.828962
633.0000	0.776351	263.683	0.82597
632.5000	0.800907	263.443	0.822859
632.0000	0.818581	263.22	0.81996
631.5000	0.815216	262.991	0.816997
631.0000	0.880617	262.727	0.81357
630.5000	0.976548	262.491	0.81051
630.0000	0.969636	262.252	0.807403
629.5000	1.00359	262.006	0.804213
629.0000	1.02053	261.78	0.80129
628.5000	1.026	261.561	0.798445
628.0000	1.01312	261.301	0.795074
627.5000	0.93438	261.075	0.792139
627.0000	0.874842	260.848	0.789201
626.5000	0.866837	260.588	0.785826
626.0000	0.772978	260.367	0.782956
625.5000	0.738068	260.145	0.780083
625.0000	0.767526	259.869	0.776504
624.5000	0.801504	259.652	0.773684
624.0000	0.754414	259.44	0.77094
623.5000	0.757264	259.176	0.767511
623.0000	0.789516	258.955	0.764641
622.5000	0.809726	258.738	0.761832
622.0000	0.835114	258.457	0.758191
621.5000	0.752483	258.249	0.75549
621.0000	0.715137	258.045	0.75284
620.5000	0.726256	257.794	0.749588
620.0000	0.715872	257.59	0.746937
619.5000	0.679504	257.366	0.744031
619.0000	0.692486	257.096	0.74053
618.5000	0.697746	256.87	0.737599
618.0000	0.754263	256.609	0.734215
617.5000	0.804034	256.317	0.730428
617.0000	0.807556	256.063	0.72714
616.5000	0.841673	255.757	0.723163
616.0000	0.918964	255.445	0.719124
615.5000	0.952662	255.169	0.71554
615.0000	0.976199	254.846	0.711357
614.5000	1.01479	254.551	0.707528
614.0000	1.10949	254.256	0.703696
613.5000	1.16403	253.89	0.698953
613.0000	1.2252	253.597	0.695148
612.5000	1.30632	253.284	0.691095
612.0000	1.37443	252.934	0.686557
611.5000	1.47379	252.634	0.68266
611.0000	1.58168	252.292	0.678228
610.5000	1.71405	251.959	0.673913
610.0000	1.83226	251.662	0.670054
609.5000	1.94819	251.298	0.665339
609.0000	2.04566	250.981	0.661221
608.5000	2.12101	250.662	0.657092
608.0000	2.27359	250.292	0.652285
607.5000	2.30658	249.985	0.648302
607.0000	2.3645	249.653	0.644001
606.5000	2.45979	249.333	0.639848
606.0000	2.51636	249.054	0.636232
605.5000	2.63235	248.726	0.631978
605.0000	2.74502	248.457	0.628483
604.5000	2.87338	248.186	0.624974
604.0000	3.01676	247.915	0.621455
603.5000	3.09166	247.701	0.618676
603.0000	3.1843	247.428	0.615143
602.5000	3.31669	247.197	0.612149
602.0000	3.43285	246.979	0.609323
601.5000	3.56107	246.749	0.606338
601.0000	3.64998	246.575	0.604072
600.5000	3.78388	246.353	0.601201
600.0000	3.88377	246.159	0.598687
599.5000	4.05389	246.005	0.59669
599.0000	4.20686	245.819	0.594277
598.5000	4.32088	245.7	0.592728
598.0000	4.4489	245.533	0.590565
597.5000	4.51947	245.386	0.588655
597.0000	4.6221	245.254	0.58695
596.5000	4.77155	245.108	0.585054
596.0000	4.82018	244.992	0.58354
595.5000	4.88322	244.839	0.581557
595.0000	4.9331	244.705	0.579818
594.5000	4.98264	244.579	0.578188
594.0000	5.0685	244.444	0.576439
593.5000	5.07215	244.329	0.57495
593.0000	5.04814	244.176	0.572968
592.5000	5.06075	244.061	0.571474
592.0000	5.04859	243.925	0.569711
591.5000	5.06743	243.789	0.567939
591.0000	5.07818	243.654	0.566192
590.5000	5.10226	243.508	0.564302
590.0000	5.11575	243.386	0.562717
589.5000	5.11399	243.247	0.560911
589.0000	5.07457	243.115	0.559198
588.5000	5.06481	242.968	0.557291
588.0000	5.06403	242.828	0.555484
587.5000	5.0294	242.696	0.553765
587.0000	5.00708	242.565	0.55207
586.5000	5.03683	242.437	0.550406
586.0000	5.03878	242.297	0.548586
585.5000	5.04736	242.166	0.546896
585.0000	5.08126	242.037	0.545224
584.5000	5.06384	241.91	0.543569
584.0000	5.01643	241.759	0.54162
583.5000	4.99009	241.602	0.539581
583.0000	4.95491	241.446	0.537551
582.5000	4.96903	241.295	0.535594
582.0000	4.93685	241.128	0.533424
581.5000	4.93863	240.964	0.531299
581.0000	4.9595	240.8	0.529175
580.5000	5.04426	240.645	0.52717
580.0000	5.07679	240.472	0.524921
579.5000	5.12768	240.316	0.522893
579.0000	5.1622	240.146	0.520693
578.5000	5.18186	240.003	0.518836
578.0000	5.15694	239.837	0.516681
577.5000	5.17184	239.689	0.514764
577.0000	5.14618	239.544	0.512891
576.5000	5.1294	239.413	0.511192
576.0000	5.18186	239.285	0.509521
575.5000	5.20417	239.141	0.507654
575.0000	5.25863	239.018	0.506065
574.5000	5.30267	238.888	0.504376
574.0000	5.34358	238.773	0.502881
573.5000	5.3989	238.634	0.501087
573.0000	5.45411	238.518	0.499578
572.5000	5.42727	238.387	0.49788
572.0000	5.44951	238.291	0.496636
571.5000	5.42577	238.165	0.494998
571.0000	5.43922	238.084	0.493955
570.5000	5.44917	237.987	0.492686
570.0000	5.4555	237.933	0.491997
569.5000	5.43704	237.853	0.490948
569.0000	5.46731	237.808	0.490373
568.5000	5.50313	237.748	0.489594
568.0000	5.56054	237.725	0.489289
567.5000	5.61916	237.659	0.488432
567.0000	5.66056	237.619	0.487916
566.5000	5.68383	237.56	0.487153
566.0000	5.7453	237.53	0.486758
565.5000	5.80652	237.481	0.486134
565.0000	5.866	237.45	0.48573
564.5000	5.89564	237.411	0.485223
564.0000	5.92632	237.398	0.485051
563.5000	5.99679	237.379	0.484804
563.0000	6.04384	237.37	0.484693
562.5000	6.07847	237.38	0.484816
562.0000	6.12493	237.388	0.484927
561.5000	6.15938	237.415	0.485271
561.0000	6.20602	237.438	0.48557
560.5000	6.24972	237.502	0.486399
560.0000	6.27308	237.533	0.486807
559.5000	6.29695	237.606	0.487753
559.0000	6.32184	237.662	0.488473
558.5000	6.37528	237.758	0.489717
558.0000	6.41876	237.839	0.49077
557.5000	6.53098	237.935	0.492023
557.0000	6.59508	238.036	0.493322
556.5000	6.65101	238.14	0.494672
556.0000	6.6956	238.256	0.496179
555.5000	6.7587	238.362	0.497556
555.0000	6.78113	238.507	0.49943
554.5000	6.83219	238.642	0.501182
554.0000	6.80358	238.807	0.503322
553.5000	6.82208	238.97	0.505443
553.0000	6.86024	239.142	0.507666
552.5000	6.89989	239.307	0.509808
552.0000	6.92767	239.459	0.511777
551.5000	6.96446	239.606	0.513689
551.0000	6.96494	239.733	0.515333
550.5000	6.99636	239.858	0.51696
550.0000	7.0126	239.97	0.518406
549.5000	7.08237	240.074	0.519761
549.0000	7.13689	240.176	0.521079
548.5000	7.19541	240.268	0.522274
548.0000	7.25291	240.352	0.523368
547.5000	7.2847	240.427	0.524335
547.0000	7.31046	240.504	0.525337
546.5000	7.33846	240.59	0.526458
546.0000	7.33189	240.666	0.527437
545.5000	7.3134	240.737	0.528356
545.0000	7.27636	240.813	0.529343
544.5000	7.30117	240.897	0.530437
544.0000	7.33999	240.984	0.531565
543.5000	7.35054	241.075	0.532739
543.0000	7.35647	241.167	0.533942
542.5000	7.35244	241.27	0.535273
542.0000	7.41084	241.384	0.536753
541.5000	7.39049	241.484	0.53805
541.0000	7.40676	241.581	0.53931
540.5000	7.40654	241.669	0.54045
540.0000	7.40826	241.727	0.541194
539.5000	7.42593	241.786	0.541959
539.0000	7.36196	241.809	0.542268
538.5000	7.31822	241.831	0.54255
538.0000	7.33876	241.861	0.542933
537.5000	7.31353	241.87	0.543048
537.0000	7.28168	241.872	0.543085
536.5000	7.21443	241.889	0.543305
536.0000	7.22585	241.904	0.543495
535.5000	7.23384	241.923	0.543745
535.0000	7.1698	241.948	0.544065
534.5000	7.06722	241.965	0.544283
534.0000	6.98302	241.996	0.544688
533.5000	6.96277	242.037	0.545219
533.0000	6.95709	242.066	0.545602
532.5000	6.8668	242.096	0.545979
532.0000	6.86281	242.135	0.546491
531.5000	6.82219	242.144	0.54661
531.0000	6.79093	242.172	0.546971
530.5000	6.7237	242.203	0.547375
530.0000	6.61984	242.22	0.547596
529.5000	6.5058	242.253	0.548016
529.0000	6.39821	242.305	0.548691
528.5000	6.27972	242.358	0.549386
528.0000	6.22198	242.41	0.550063
527.5000	6.13596	242.476	0.550918
527.0000	6.05245	242.541	0.551754
526.5000	5.99965	242.594	0.55245
526.0000	5.96172	242.666	0.553379
525.5000	5.87318	242.737	0.554299
525.0000	5.77952	242.798	0.555088
524.5000	5.6808	242.883	0.556199
524.0000	5.60049	242.978	0.557423
523.5000	5.51889	243.074	0.558664
523.0000	5.4228	243.17	0.559909
522.5000	5.35554	243.274	0.561269
522.0000	5.32449	243.384	0.562691
521.5000	5.25831	243.496	0.564144
521.0000	5.19619	243.603	0.565537
520.5000	5.06846	243.708	0.566899
520.0000	4.96086	243.828	0.568447
519.5000	4.90886	243.954	0.570086
519.0000	4.81334	244.088	0.57182
518.5000	4.67829	244.215	0.573469
518.0000	4.57226	244.341	0.575098
517.5000	4.54134	244.47	0.576771
517.0000	4.51579	244.595	0.578403
516.5000	4.43221	244.717	0.579976
516.0000	4.34315	244.845	0.581634
515.5000	4.20623	244.976	0.583345
515.0000	4.13718	245.142	0.585495
514.5000	4.01464	245.305	0.587604
514.0000	3.8915	245.483	0.589915
513.5000	3.78427	245.671	0.592352
513.0000	3.67295	245.875	0.594995
512.5000	3.57447	246.088	0.597767
512.0000	3.50662	246.291	0.600392
511.5000	3.39789	246.481	0.602864
511.0000	3.24471	246.67	0.605312
510.5000	3.10329	246.854	0.607694
510.0000	2.95589	247.036	0.610062
509.5000	2.84963	247.208	0.612287
509.0000	2.70526	247.359	0.61425
508.5000	2.5797	247.508	0.616173
508.0000	2.46289	247.65	0.618027
507.5000	2.37072	247.796	0.619919
507.0000	2.26871	247.929	0.621642
506.5000	2.17535	248.055	0.623271
506.0000	2.04059	248.175	0.624827
505.5000	1.88162	248.294	0.626379
505.0000	1.69699	248.422	0.628029
504.5000	1.54993	248.558	0.629799
504.0000	1.37915	248.711	0.631787
503.5000	1.14859	248.876	0.63392
503.0000	0.906108	249.049	0.636167
502.5000	0.704326	249.213	0.638294
502.0000	0.484151	249.375	0.640393
501.5000	0.272048	249.524	0.642333
501.0000	0.060183	249.659	0.64408
500.5000	-0.152076	249.766	0.645462
500.0000	-0.339377	249.847	0.646509
499.5000	-0.50937	249.906	0.647284
499.0000	-0.696481	249.933	0.647632
498.5000	-0.894268	249.915	0.647402
498.0000	-1.10016	249.86	0.646689
497.5000	-1.31931	249.737	0.645092
497.0000	-1.54969	249.55	0.64267
496.5000	-1.77397	249.285	0.639221
496.0000	-2.05498	248.936	0.634706
495.5000	-2.32411	248.521	0.629321
495.0000	-2.59362	248.073	0.623502
494.5000	-2.83993	247.625	0.61769
494.0000	-3.0777	247.235	0.612637
493.5000	-3.29979	246.962	0.609096
493.0000	-3.5294	246.846	0.607589
492.5000	-3.70679	246.903	0.608335
492.0000	-3.83312	247.106	0.610964
491.5000	-4.03517	247.412	0.614933
491.0000	-4.24824	247.758	0.619421
490.5000	-4.46262	248.089	0.623712
490.0000	-4.67984	248.342	0.626996
489.5000	-4.88324	248.47	0.628656
489.0000	-5.13521	248.473	0.628698
488.5000	-5.40965	248.342	0.626998
488.0000	-5.59824	248.095	0.623793
487.5000	-5.80525	247.747	0.619276
487.0000	-6.00139	247.302	0.613508
486.5000	-6.18007	246.788	0.606835
486.0000	-6.4063	246.217	0.59944
485.5000	-6.54856	245.617	0.591656
485.0000	-6.66216	245.034	0.584092
484.5000	-6.76351	244.5	0.57716
484.0000	-6.83752	244.062	0.571488
483.5000	-6.93681	243.761	0.567586
483.0000	-6.98391	243.625	0.565818
482.5000	-6.98151	243.685	0.566592
482.0000	-6.99418	243.935	0.569836
481.5000	-7.00455	244.336	0.575033
481.0000	-7.00195	244.837	0.581533
480.5000	-6.95199	245.405	0.5889
480.0000	-6.91149	245.962	0.59613
479.5000	-6.89407	246.459	0.602571
479.0000	-6.8602	246.845	0.607583
478.5000	-6.84235	247.082	0.610652
478.0000	-6.78427	247.147	0.611496
477.5000	-6.79727	247.013	0.609764
477.0000	-6.79624	246.698	0.605673
476.5000	-6.7315	246.23	0.599599
476.0000	-6.69334	245.685	0.592536
475.5000	-6.66061	245.126	0.585288
475.0000	-6.61895	244.682	0.579531
474.5000	-6.54461	244.405	0.575936
474.0000	-6.44099	244.34	0.575084
473.5000	-6.36853	244.464	0.576703
473.0000	-6.3151	244.735	0.580209
472.5000	-6.20365	245.039	0.584151
472.0000	-6.10744	245.28	0.587285
471.5000	-6.00013	245.406	0.588919
471.0000	-5.91676	245.413	0.589001
470.5000	-5.80654	245.357	0.588277
470.0000	-5.63877	245.311	0.587679
469.5000	-5.48516	245.389	0.588696
469.0000	-5.32491	245.692	0.592619
468.5000	-5.13634	246.271	0.600131
468.0000	-4.97942	247.106	0.610971
467.5000	-4.79105	248.162	0.624657
467.0000	-4.60057	249.316	0.639628
466.5000	-4.36531	250.484	0.654774
466.0000	-4.15627	251.546	0.668553
465.5000	-3.95454	252.459	0.680397
465.0000	-3.71911	253.211	0.690146
464.5000	-3.42956	253.832	0.698195
464.0000	-3.15366	254.355	0.704982
463.5000	-2.8575	254.886	0.711866
463.0000	-2.5042	255.477	0.719534
462.5000	-2.15159	256.152	0.728291
462.0000	-1.77008	256.87	0.737604
461.5000	-1.38289	257.606	0.747154
461.0000	-0.950346	258.335	0.756608
460.5000	-0.530727	258.998	0.765204
460.0000	-0.120603	259.582	0.772777
459.5000	0.29144	260.107	0.779582
459.0000	0.803953	260.607	0.786068
458.5000	1.30834	261.102	0.792495
458.0000	1.84967	261.639	0.799456
457.5000	2.43963	262.237	0.807218
457.0000	3.10311	262.865	0.815362
456.5000	3.80138	263.491	0.823476
456.0000	4.53333	264.068	0.830963
455.5000	5.27215	264.561	0.837362
455.0000	5.93447	264.954	0.842449
454.5000	6.64461	265.211	0.845781
454.0000	7.40391	265.373	0.847882
453.5000	8.17674	265.483	0.849319
453.0000	9.01802	265.595	0.850772
452.5000	9.81387	265.764	0.852961
452.0000	10.6449	266.096	0.857259
451.5000	11.6102	266.664	0.864638
451.0000	12.48	267.476	0.875168
450.5000	13.3677	268.517	0.888667
450.0000	14.2069	269.771	0.904924
449.5000	15.0686	271.166	0.923023
449.0000	15.9035	272.603	0.941662
448.5000	16.6578	273.973	0.959425
448.0000	17.357	275.225	0.975692
447.5000	17.8997	276.343	0.989163
447.0000	18.38	277.319	1.00092
446.5000	18.7679	278.17	1.01116
446.0000	19.0371	278.919	1.02016
445.5000	19.1775	279.624	1.02862
445.0000	19.2739	280.297	1.03669
444.5000	19.2362	280.938	1.04435
444.0000	19.1287	281.558	1.05123
443.5000	18.8989	282.151	1.05779
443.0000	18.5263	282.717	1.06405
442.5000	17.9751	283.235	1.06977
442.0000	17.3527	283.703	1.07494
441.5000	16.5646	284.112	1.07945
441.0000	15.7409	284.452	1.08319
440.5000	14.8938	284.716	1.0861
440.0000	13.9884	284.917	1.0883
439.5000	13.0623	285.066	1.08995
439.0000	12.028	285.175	1.09115
438.5000	11.1557	285.254	1.09202
438.0000	10.2649	285.286	1.09237
437.5000	9.43236	285.272	1.09221
437.0000	8.57687	285.209	1.09152
436.5000	7.80537	285.06	1.08988
436.0000	7.19637	284.812	1.08715
435.5000	6.78111	284.477	1.08347
435.0000	6.30949	284.029	1.07853
434.5000	5.94414	283.497	1.07268
434.0000	5.61478	282.88	1.06586
433.5000	5.38762	282.198	1.05832
433.0000	5.13339	281.469	1.05025
432.5000	4.91276	280.702	1.04168
432.0000	4.79552	279.909	1.03217
431.5000	4.69677	279.099	1.02245
431.0000	4.6127	278.275	1.01255
430.5000	4.62085	277.454	1.00268
430.0000	4.60539	276.636	0.992842
429.5000	4.6572	275.83	0.98314
429.0000	4.67955	275.037	0.97323
428.5000	4.68248	274.262	0.963178
428.0000	4.8036	273.52	0.953552
427.5000	4.96302	272.811	0.944363
427.0000	5.02233	272.134	0.935583
426.5000	5.13208	271.487	0.927184
426.0000	5.26424	270.883	0.919358
425.5000	5.40979	270.308	0.911895
425.0000	5.4953	269.752	0.904686
424.5000	5.51099	269.221	0.897791
424.0000	5.62882	268.692	0.890935
423.5000	5.79618	268.168	0.884138
423.0000	5.92119	267.64	0.87729
422.5000	6.03748	267.107	0.870384
422.0000	6.22119	266.583	0.863587
421.5000	6.41009	266.081	0.857069
421.0000	6.52541	265.61	0.850959
420.5000	6.62576	265.206	0.845724
420.0000	6.73807	264.868	0.841338
419.5000	6.81808	264.596	0.837816
419.0000	6.88913	264.368	0.834849
418.5000	6.93766	264.162	0.832186
418.0000	6.97692	263.96	0.829556
417.5000	7.07873	263.723	0.826488
417.0000	7.16229	263.431	0.822704
416.5000	7.24208	263.075	0.818082
416.0000	7.3098	262.646	0.812522
415.5000	7.3603	262.165	0.806274
415.0000	7.48179	261.628	0.79931
414.5000	7.57688	261.05	0.791822
414.0000	7.60336	260.436	0.78386
413.5000	7.56066	259.803	0.77564
413.0000	7.55629	259.153	0.767214
412.5000	7.59257	258.497	0.758703
412.0000	7.57264	257.818	0.749904
411.5000	7.49107	257.136	0.741058
411.0000	7.43492	256.449	0.732139
410.5000	7.40134	255.753	0.723114
410.0000	7.40964	255.044	0.713925
409.5000	7.39137	254.325	0.704591
409.0000	7.36217	253.589	0.695044
408.5000	7.37838	252.856	0.685543
408.0000	7.34853	252.113	0.675901
407.5000	7.32415	251.361	0.66615
407.0000	7.26528	250.609	0.656394
406.5000	7.17887	249.859	0.646674
406.0000	7.12453	249.112	0.636987
405.5000	7.03885	248.377	0.627453
405.0000	6.94341	247.651	0.618031
404.5000	6.82975	246.924	0.60861
404.0000	6.8111	246.222	0.599496
403.5000	6.7794	245.522	0.590418
403.0000	6.72931	244.828	0.581414
402.5000	6.61588	244.148	0.572602
402.0000	6.52618	243.467	0.563772
401.5000	6.49247	242.804	0.555163
401.0000	6.41361	242.154	0.546736
400.5000	6.27636	241.52	0.538514
400.0000	6.17524	240.918	0.530713
399.5000	6.09687	240.356	0.523422
399.0000	6.08981	239.837	0.516691
398.5000	6.04438	239.373	0.510672
398.0000	5.95171	238.969	0.505429
397.5000	5.871	238.622	0.500923
397.0000	5.82733	238.327	0.497102
396.5000	5.82152	238.085	0.493961
396.0000	5.79112	237.865	0.491103
395.5000	5.75511	237.674	0.488638
395.0000	5.67588	237.491	0.486261
394.5000	5.68826	237.309	0.483902
394.0000	5.6823	237.125	0.481506
393.5000	5.62454	236.941	0.47913
393.0000	5.50773	236.743	0.476551
392.5000	5.40014	236.542	0.473956
392.0000	5.27335	236.335	0.47126
391.5000	5.18545	236.136	0.468688
391.0000	5.0769	235.933	0.466049
390.5000	4.99045	235.73	0.463415
390.0000	4.89386	235.519	0.460683
389.5000	4.84988	235.317	0.458057
389.0000	4.76049	235.106	0.455322
388.5000	4.68329	234.883	0.452431
388.0000	4.5994	234.643	0.449326
387.5000	4.49646	234.395	0.446104
387.0000	4.35488	234.134	0.442712
386.5000	4.25237	233.855	0.439106
386.0000	4.14182	233.563	0.435307
385.5000	4.08435	233.261	0.431395
385.0000	3.99427	232.944	0.427281
384.5000	3.88451	232.623	0.423123
384.0000	3.80098	232.283	0.418708
383.5000	3.73041	231.943	0.414302
383.0000	3.67741	231.598	0.409827
382.5000	3.57665	231.24	0.405184
382.0000	3.48041	230.878	0.400491
381.5000	3.4096	230.513	0.395752
381.0000	3.36416	230.137	0.390881
380.5000	3.30629	229.761	0.386005
380.0000	3.25501	229.365	0.380858
379.5000	3.21422	228.969	0.375722
379.0000	3.16453	228.565	0.370489
378.5000	3.15006	228.155	0.365166
378.0000	3.1329	227.729	0.359639
377.5000	3.09305	227.303	0.354126
377.0000	3.04325	226.869	0.348485
376.5000	3.00917	226.425	0.342733
376.0000	3.00321	225.976	0.336906
375.5000	2.99675	225.521	0.331003
375.0000	2.93916	225.057	0.324983
374.5000	2.92804	224.603	0.319106
374.0000	2.95809	224.145	0.313165
373.5000	2.97871	223.694	0.307306
373.0000	2.9492	223.248	0.301531
372.5000	2.94621	222.805	0.295779
372.0000	2.95154	222.373	0.290183
371.5000	2.95772	221.96	0.284817
371.0000	2.92739	221.548	0.279477
370.5000	2.91184	221.145	0.274245
370.0000	2.89349	220.761	0.269269
369.5000	2.91535	220.387	0.264425
369.0000	2.91669	220.029	0.259777
368.5000	2.91859	219.686	0.255334
368.0000	2.93625	219.355	0.251033
367.5000	2.93637	219.035	0.246883
367.0000	2.97836	218.727	0.24289
366.5000	2.98924	218.424	0.23896
366.0000	3.00775	218.134	0.235196
365.5000	2.97939	217.857	0.23161
365.0000	2.98886	217.592	0.228166
364.5000	3.00069	217.337	0.224863
364.0000	2.99636	217.097	0.221747
363.5000	2.99838	216.864	0.218726
363.0000	2.97036	216.645	0.215889
362.5000	2.9693	216.429	0.213088
362.0000	3.00296	216.224	0.210427
361.5000	3.00028	216.024	0.207832
361.0000	3.0242	215.838	0.205421
360.5000	3.05339	215.657	0.203071
360.0000	3.07374	215.495	0.200966
359.5000	3.10026	215.341	0.198979
359.0000	3.10991	215.197	0.197099
358.5000	3.13755	215.065	0.195393
358.0000	3.16083	214.938	0.193743
357.5000	3.14718	214.826	0.192295
357.0000	3.17212	214.73	0.191051
356.5000	3.21206	214.642	0.189906
356.0000	3.26177	214.569	0.188955
355.5000	3.33037	214.507	0.188158
355.0000	3.38138	214.463	0.187582
354.5000	3.48381	214.435	0.187225
354.0000	3.58137	214.428	0.187129
353.5000	3.67461	214.429	0.187144
353.0000	3.76869	214.452	0.187438
352.5000	3.88999	214.488	0.187915
352.0000	4.00003	214.543	0.188618
351.5000	4.13454	214.617	0.189579
351.0000	4.25804	214.704	0.19071
350.5000	4.40206	214.812	0.192106
350.0000	4.54409	214.932	0.193665

##### Extended Information
[Comments]
Sample name	wt
Comment
User
Division
Company	MTA-SZBK

[Detailed Information]
Creation date	2/4/2016 6:54 PM

Data array type	Linear data array * 3
Horizontal axis	Wavelength [nm]
Vertical axis(1)	CD [mdeg]
Vertical axis(2)	HT [V]
Vertical axis(3)	Abs
Start	750 nm
End	350 nm
Data interval	0.5 nm
Data points	801     

[Measurement Information]
Instrument Name	J-815
Model Name	J-815
Serial No.	B042361168

Accessory	Standard
Accessory S/N	B042361168
  Cell Length	10 mm

Measurement date	2/4/2016 6:48 PM

Photometric Mode	CD, HT, Abs
Measure Range	750 - 350 nm
Data pitch	0.5 nm
Sensitivity	Standard
D.I.T.	2 sec
Bandwidth	3.00 nm
Start Mode	Immediately
Scanning Speed	100 nm/min
Baseline Correction	None
Shutter Control	Auto
CD Detector	PMT
PMT Voltage	Auto

