TITLE	wt”bdm
DATA TYPE	
ORIGIN	JASCO
OWNER	
DATE	16/02/04
TIME	18:04:02
SPECTROMETER/DATA SYSTEM	
LOCALE	1033
RESOLUTION	
DELTAX	-0.5
XUNITS	NANOMETERS
YUNITS	CD [mdeg]
Y2UNITS	HT [V]
Y3UNITS	ABSORBANCE
FIRSTX	  750.0000
LASTX	  350.0000
NPOINTS	     801
FIRSTY	    -4.39539
MAXY	    37.77364
MINY	   -19.11879
XYDATA
750.0000	-4.39539	291.406	1.1593
749.5000	-4.41677	291.1	1.15597
749.0000	-4.51342	290.743	1.1521
748.5000	-4.53403	290.326	1.14757
748.0000	-4.44712	289.877	1.14268
747.5000	-4.45854	289.399	1.13748
747.0000	-4.41522	288.884	1.13187
746.5000	-4.37505	288.385	1.12642
746.0000	-4.34811	287.902	1.12115
745.5000	-4.38081	287.454	1.11625
745.0000	-4.35008	287.052	1.11185
744.5000	-4.32736	286.7	1.10799
744.0000	-4.30837	286.397	1.10467
743.5000	-4.31243	286.164	1.10211
743.0000	-4.36912	285.961	1.09988
742.5000	-4.32243	285.779	1.09788
742.0000	-4.25713	285.601	1.09593
741.5000	-4.19152	285.391	1.09363
741.0000	-4.18872	285.123	1.09068
740.5000	-4.12579	284.765	1.08674
740.0000	-4.07644	284.313	1.08176
739.5000	-4.0702	283.765	1.07573
739.0000	-3.98721	283.114	1.06853
738.5000	-4.06931	282.369	1.06031
738.0000	-4.08665	281.586	1.05163
737.5000	-4.06746	280.777	1.04266
737.0000	-3.971	280.127	1.03544
736.5000	-3.89322	279.627	1.02989
736.0000	-3.84727	279.308	1.02633
735.5000	-3.87701	279.178	1.02489
735.0000	-3.81068	279.22	1.02536
734.5000	-3.71694	279.347	1.02677
734.0000	-3.67677	279.568	1.02923
733.5000	-3.71614	279.822	1.03205
733.0000	-3.66481	280.057	1.03466
732.5000	-3.62699	280.256	1.03688
732.0000	-3.58215	280.422	1.03873
731.5000	-3.65637	280.533	1.03996
731.0000	-3.75829	280.653	1.04129
730.5000	-3.76908	280.801	1.04293
730.0000	-3.71821	280.938	1.04445
729.5000	-3.68872	281.057	1.04577
729.0000	-3.70545	281.15	1.0468
728.5000	-3.69583	281.162	1.04694
728.0000	-3.62367	281.116	1.04643
727.5000	-3.54974	281.062	1.04583
727.0000	-3.54655	280.964	1.04474
726.5000	-3.6434	280.814	1.04308
726.0000	-3.67339	280.624	1.04097
725.5000	-3.58627	280.336	1.03776
725.0000	-3.49595	280.048	1.03457
724.5000	-3.44444	279.766	1.03143
724.0000	-3.40288	279.43	1.02769
723.5000	-3.34803	279.062	1.0236
723.0000	-3.25627	278.667	1.0192
722.5000	-3.26512	278.145	1.01323
722.0000	-3.26377	277.671	1.00739
721.5000	-3.27845	277.2	1.00128
721.0000	-3.28227	276.722	0.995087
720.5000	-3.28643	276.251	0.988979
720.0000	-3.29158	275.768	0.982705
719.5000	-3.28784	275.219	0.97559
719.0000	-3.23518	274.797	0.970121
718.5000	-3.34406	274.39	0.964841
718.0000	-3.33732	274.005	0.95985
717.5000	-3.33004	273.655	0.955311
717.0000	-3.28563	273.267	0.950275
716.5000	-3.23354	272.96	0.946288
716.0000	-3.21329	272.78	0.94396
715.5000	-3.18826	272.685	0.94272
715.0000	-3.13805	272.668	0.942499
714.5000	-3.12586	272.709	0.943033
714.0000	-3.13971	272.752	0.943588
713.5000	-3.14758	272.955	0.94623
713.0000	-3.15606	273.197	0.949362
712.5000	-3.19079	273.452	0.952667
712.0000	-3.15426	273.709	0.956002
711.5000	-3.10241	273.871	0.958103
711.0000	-3.04243	274.044	0.960356
710.5000	-3.06744	274.245	0.962963
710.0000	-3.0909	274.423	0.965269
709.5000	-3.10974	274.575	0.967233
709.0000	-3.20487	274.653	0.968252
708.5000	-3.3146	274.69	0.968724
708.0000	-3.47713	274.811	0.970302
707.5000	-3.58075	274.916	0.971657
707.0000	-3.62875	275	0.972754
706.5000	-3.72848	275.034	0.97319
706.0000	-3.80239	274.988	0.972588
705.5000	-3.81827	275.027	0.973107
705.0000	-3.86875	275.082	0.973812
704.5000	-3.92073	275.142	0.974595
704.0000	-4.00222	275.174	0.975007
703.5000	-4.09137	275.164	0.974879
703.0000	-4.1376	275.266	0.976195
702.5000	-4.2972	275.422	0.978227
702.0000	-4.48969	275.595	0.980465
701.5000	-4.70227	275.754	0.982535
701.0000	-4.96239	275.874	0.98409
700.5000	-5.22012	276.094	0.986933
700.0000	-5.41199	276.38	0.990647
699.5000	-5.60594	276.703	0.994833
699.0000	-5.7383	277.024	0.999004
698.5000	-5.92639	277.318	1.00281
698.0000	-6.09555	277.751	1.00835
697.5000	-6.25187	278.264	1.01454
697.0000	-6.45397	278.813	1.02082
696.5000	-6.61767	279.343	1.02673
696.0000	-6.85912	279.885	1.03275
695.5000	-7.19607	280.565	1.04031
695.0000	-7.4286	281.352	1.04904
694.5000	-7.69467	282.201	1.05844
694.0000	-8.00728	283.028	1.06759
693.5000	-8.30942	283.91	1.07732
693.0000	-8.7819	284.996	1.08928
692.5000	-9.19283	286.21	1.10261
692.0000	-9.61374	287.527	1.11704
691.5000	-10.1292	288.824	1.13121
691.0000	-10.6138	290.264	1.1469
690.5000	-11.1519	291.96	1.16531
690.0000	-11.7428	293.766	1.18483
689.5000	-12.2935	295.617	1.20477
689.0000	-12.9065	297.482	1.22477
688.5000	-13.4567	299.442	1.24571
688.0000	-14.0441	301.511	1.2677
687.5000	-14.61	303.636	1.29019
687.0000	-15.1597	305.751	1.31248
686.5000	-15.6549	308.054	1.33662
686.0000	-16.165	310.551	1.36265
685.5000	-16.4965	313.249	1.3906
685.0000	-16.9381	316.127	1.42024
684.5000	-17.3645	319.196	1.45164
684.0000	-17.8006	322.499	1.48516
683.5000	-18.2081	326.035	1.52078
683.0000	-18.549	329.671	1.55709
682.5000	-18.7356	333.261	1.59263
682.0000	-18.9907	336.932	1.62867
681.5000	-19.1188	340.735	1.66566
681.0000	-19.0483	344.549	1.70241
680.5000	-18.8019	348.249	1.73774
680.0000	-18.6153	351.804	1.77137
679.5000	-18.3995	355.339	1.80452
679.0000	-17.8946	358.964	1.83821
678.5000	-17.3635	362.39	1.86977
678.0000	-16.7112	365.573	1.89883
677.5000	-15.944	368.595	1.92621
677.0000	-15.1562	371.57	1.95295
676.5000	-14.162	374.364	1.97786
676.0000	-13.0208	376.742	1.99893
675.5000	-12.0645	378.788	2.01695
675.0000	-11.0504	380.541	2.0323
674.5000	-9.9784	381.929	2.04441
674.0000	-9.31904	382.708	2.05119
673.5000	-8.63795	382.981	2.05356
673.0000	-8.2529	382.838	2.05231
672.5000	-8.17858	382.287	2.04752
672.0000	-8.09631	381.135	2.03748
671.5000	-8.15787	379.5	2.02318
671.0000	-8.60735	377.45	2.00517
670.5000	-8.95844	375.069	1.98411
670.0000	-9.4457	372.144	1.95806
669.5000	-9.91434	368.79	1.92795
669.0000	-10.4627	365.161	1.89507
668.5000	-10.924	361.358	1.86028
668.0000	-11.252	357.25	1.82231
667.5000	-11.4919	352.981	1.78243
667.0000	-11.7509	348.699	1.742
666.5000	-11.9255	344.517	1.70209
666.0000	-12.0792	340.253	1.66098
665.5000	-12.1009	335.93	1.61885
665.0000	-12.0988	331.724	1.57744
664.5000	-12.1754	327.71	1.53753
664.0000	-11.9776	323.699	1.49727
663.5000	-11.8147	319.78	1.45757
663.0000	-11.4959	316.008	1.41902
662.5000	-11.0561	312.531	1.38318
662.0000	-10.5917	309.171	1.34827
661.5000	-10.1568	305.994	1.31503
661.0000	-9.68139	303.01	1.28359
660.5000	-9.25605	300.261	1.25442
660.0000	-8.73395	297.595	1.22598
659.5000	-8.34806	295.112	1.19934
659.0000	-7.96949	292.807	1.17448
658.5000	-7.55079	290.667	1.15128
658.0000	-7.21981	288.595	1.12871
657.5000	-6.84104	286.682	1.10779
657.0000	-6.50091	284.944	1.08871
656.5000	-6.17747	283.291	1.07049
656.0000	-5.76086	281.721	1.05313
655.5000	-5.45415	280.254	1.03686
655.0000	-5.1443	278.943	1.02227
654.5000	-4.75774	277.663	1.00728
654.0000	-4.55565	276.479	0.991935
653.5000	-4.35394	275.402	0.977961
653.0000	-4.11661	274.45	0.965619
652.5000	-3.95474	273.548	0.953922
652.0000	-3.76338	272.742	0.943459
651.5000	-3.59513	272.065	0.934686
651.0000	-3.42703	271.48	0.927096
650.5000	-3.29304	270.951	0.92024
650.0000	-3.21699	270.513	0.91456
649.5000	-3.13113	270.194	0.910419
649.0000	-3.06082	269.908	0.906706
648.5000	-2.98637	269.679	0.903739
648.0000	-2.94658	269.505	0.901483
647.5000	-2.88691	269.39	0.899992
647.0000	-2.74227	269.28	0.898564
646.5000	-2.61741	269.196	0.89747
646.0000	-2.60619	269.143	0.896786
645.5000	-2.58036	269.092	0.89612
645.0000	-2.63102	269.057	0.895668
644.5000	-2.62797	269.035	0.89538
644.0000	-2.62507	269.04	0.895447
643.5000	-2.58269	269.033	0.895362
643.0000	-2.55121	269.025	0.895257
642.5000	-2.51486	269.039	0.895434
642.0000	-2.5126	269.049	0.895562
641.5000	-2.4894	269.058	0.895687
641.0000	-2.44423	269.062	0.895735
640.5000	-2.4099	269.063	0.89575
640.0000	-2.4142	269.065	0.895777
639.5000	-2.37349	269.065	0.895772
639.0000	-2.30945	269.066	0.895791
638.5000	-2.26594	269.048	0.895551
638.0000	-2.10861	269.023	0.895232
637.5000	-2.00079	268.973	0.89458
637.0000	-1.96771	268.905	0.8937
636.5000	-1.9518	268.82	0.892598
636.0000	-1.92749	268.693	0.890942
635.5000	-1.91169	268.553	0.889138
635.0000	-1.814	268.399	0.887138
634.5000	-1.8469	268.198	0.884523
634.0000	-1.82779	268.006	0.882032
633.5000	-1.78527	267.801	0.879384
633.0000	-1.75051	267.57	0.876377
632.5000	-1.69617	267.323	0.873181
632.0000	-1.62276	267.086	0.870103
631.5000	-1.56398	266.842	0.866937
631.0000	-1.54366	266.558	0.863253
630.5000	-1.52072	266.302	0.859943
630.0000	-1.45343	266.045	0.856609
629.5000	-1.36365	265.776	0.853114
629.0000	-1.35229	265.53	0.849919
628.5000	-1.38751	265.278	0.846654
628.0000	-1.45458	264.992	0.842942
627.5000	-1.47709	264.744	0.839723
627.0000	-1.4789	264.497	0.836521
626.5000	-1.48325	264.215	0.832875
626.0000	-1.54172	263.973	0.829734
625.5000	-1.54959	263.737	0.826675
625.0000	-1.55388	263.447	0.822913
624.5000	-1.57005	263.214	0.819879
624.0000	-1.60223	262.983	0.816896
623.5000	-1.65786	262.699	0.813206
623.0000	-1.70466	262.465	0.810176
622.5000	-1.69304	262.227	0.807088
622.0000	-1.69997	261.931	0.803246
621.5000	-1.72433	261.706	0.800333
621.0000	-1.73147	261.477	0.797358
620.5000	-1.77879	261.199	0.793745
620.0000	-1.79604	260.954	0.79057
619.5000	-1.80837	260.693	0.787184
619.0000	-1.82405	260.379	0.783117
618.5000	-1.79267	260.093	0.779406
618.0000	-1.76785	259.771	0.775228
617.5000	-1.73891	259.417	0.770632
617.0000	-1.7197	259.092	0.766419
616.5000	-1.64546	258.714	0.761515
616.0000	-1.66039	258.326	0.756489
615.5000	-1.61082	257.971	0.751882
615.0000	-1.60896	257.569	0.746665
614.5000	-1.53727	257.191	0.741769
614.0000	-1.46829	256.815	0.736886
613.5000	-1.41121	256.37	0.731123
613.0000	-1.34078	255.987	0.726147
612.5000	-1.32612	255.589	0.720989
612.0000	-1.28288	255.161	0.715434
611.5000	-1.23079	254.771	0.710385
611.0000	-1.1955	254.346	0.704864
610.5000	-1.0937	253.931	0.699491
610.0000	-1.01997	253.552	0.694565
609.5000	-0.923859	253.115	0.688901
609.0000	-0.841051	252.715	0.683716
608.5000	-0.783501	252.313	0.678496
608.0000	-0.696432	251.869	0.672736
607.5000	-0.641981	251.485	0.667766
607.0000	-0.611701	251.078	0.662486
606.5000	-0.55592	250.689	0.657435
606.0000	-0.47025	250.344	0.652959
605.5000	-0.360804	249.955	0.647923
605.0000	-0.27622	249.63	0.643703
604.5000	-0.161718	249.316	0.639632
604.0000	-0.0316696	249	0.635533
603.5000	0.0426788	248.749	0.632271
603.0000	0.123079	248.444	0.628316
602.5000	0.235825	248.186	0.624972
602.0000	0.340137	247.946	0.621862
601.5000	0.446259	247.694	0.618592
601.0000	0.526669	247.5	0.616069
600.5000	0.624775	247.265	0.613027
600.0000	0.688245	247.064	0.610421
599.5000	0.79018	246.908	0.608402
599.0000	0.853413	246.727	0.606052
598.5000	0.927203	246.609	0.604521
598.0000	0.967089	246.446	0.602399
597.5000	0.995584	246.311	0.600647
597.0000	1.05204	246.196	0.599159
596.5000	1.1412	246.064	0.597445
596.0000	1.18771	245.965	0.596172
595.5000	1.28495	245.832	0.594438
595.0000	1.37102	245.719	0.592977
594.5000	1.43192	245.609	0.591554
594.0000	1.51052	245.488	0.589976
593.5000	1.48794	245.388	0.588681
593.0000	1.52112	245.251	0.586911
592.5000	1.52777	245.145	0.585534
592.0000	1.54163	245.017	0.583867
591.5000	1.56823	244.894	0.582269
591.0000	1.58145	244.767	0.580625
590.5000	1.63142	244.623	0.578763
590.0000	1.70572	244.504	0.577215
589.5000	1.71468	244.363	0.575393
589.0000	1.66818	244.23	0.573658
588.5000	1.58652	244.08	0.571716
588.0000	1.53954	243.932	0.569796
587.5000	1.54266	243.791	0.567971
587.0000	1.49125	243.645	0.566069
586.5000	1.44744	243.503	0.564236
586.0000	1.41869	243.344	0.562175
585.5000	1.40959	243.197	0.560261
585.0000	1.38422	243.052	0.558384
584.5000	1.39336	242.905	0.556477
584.0000	1.35031	242.733	0.554247
583.5000	1.33369	242.564	0.55205
583.0000	1.2949	242.387	0.549754
582.5000	1.31769	242.216	0.547544
582.0000	1.30086	242.032	0.545154
581.5000	1.31453	241.84	0.54266
581.0000	1.2892	241.643	0.540113
580.5000	1.28645	241.455	0.537669
580.0000	1.30983	241.246	0.534961
579.5000	1.33845	241.053	0.532457
579.0000	1.3595	240.844	0.52975
578.5000	1.38805	240.657	0.527323
578.0000	1.40333	240.453	0.524675
577.5000	1.39725	240.267	0.522261
577.0000	1.41178	240.082	0.519866
576.5000	1.43216	239.913	0.517677
576.0000	1.43147	239.743	0.515465
575.5000	1.4102	239.559	0.513079
575.0000	1.42975	239.395	0.510955
574.5000	1.43908	239.225	0.508753
574.0000	1.43473	239.072	0.50676
573.5000	1.4415	238.894	0.504457
573.0000	1.42755	238.742	0.502485
572.5000	1.4567	238.58	0.500388
572.0000	1.42805	238.456	0.49878
571.5000	1.39454	238.303	0.496794
571.0000	1.38216	238.195	0.495395
570.5000	1.38843	238.075	0.493829
570.0000	1.40771	238.001	0.492869
569.5000	1.40866	237.896	0.491509
569.0000	1.38216	237.834	0.490702
568.5000	1.40495	237.754	0.489674
568.0000	1.41655	237.716	0.489175
567.5000	1.44279	237.639	0.488179
567.0000	1.47562	237.585	0.487483
566.5000	1.45277	237.516	0.486588
566.0000	1.48822	237.483	0.486149
565.5000	1.50135	237.426	0.485409
565.0000	1.51205	237.391	0.484955
564.5000	1.47978	237.348	0.484406
564.0000	1.4857	237.329	0.484162
563.5000	1.4946	237.317	0.483999
563.0000	1.47797	237.315	0.483972
562.5000	1.4592	237.33	0.484169
562.0000	1.43622	237.356	0.484508
561.5000	1.46756	237.4	0.485079
561.0000	1.45334	237.446	0.485674
560.5000	1.41232	237.535	0.486833
560.0000	1.39511	237.594	0.487594
559.5000	1.39452	237.695	0.488899
559.0000	1.42693	237.779	0.489993
558.5000	1.4134	237.905	0.491625
558.0000	1.41047	238.026	0.493195
557.5000	1.47594	238.172	0.495092
557.0000	1.50388	238.325	0.497074
556.5000	1.51581	238.489	0.499208
556.0000	1.52871	238.675	0.501618
555.5000	1.51559	238.858	0.503993
555.0000	1.59518	239.074	0.506786
554.5000	1.60288	239.268	0.509303
554.0000	1.55486	239.499	0.512299
553.5000	1.48934	239.727	0.515265
553.0000	1.53007	239.967	0.518368
552.5000	1.56127	240.206	0.521468
552.0000	1.5702	240.432	0.524402
551.5000	1.55458	240.671	0.527499
551.0000	1.56094	240.899	0.530464
550.5000	1.61773	241.124	0.533373
550.0000	1.67208	241.339	0.536164
549.5000	1.70576	241.543	0.53881
549.0000	1.71058	241.746	0.541449
548.5000	1.70667	241.94	0.543968
548.0000	1.71231	242.129	0.546408
547.5000	1.73617	242.306	0.54871
547.0000	1.75742	242.481	0.55098
546.5000	1.74084	242.667	0.553394
546.0000	1.73177	242.849	0.555751
545.5000	1.76236	243.027	0.55806
545.0000	1.82833	243.203	0.560347
544.5000	1.84659	243.389	0.562752
544.0000	1.86889	243.581	0.565246
543.5000	1.84826	243.777	0.567791
543.0000	1.91133	243.974	0.570341
542.5000	1.94641	244.18	0.57302
542.0000	1.95089	244.393	0.575783
541.5000	1.94397	244.599	0.57845
541.0000	1.99825	244.809	0.581171
540.5000	2.02267	244.997	0.583606
540.0000	2.05755	245.165	0.585788
539.5000	2.06518	245.327	0.587887
539.0000	2.01718	245.456	0.589565
538.5000	2.02962	245.575	0.591113
538.0000	2.04752	245.714	0.592911
537.5000	2.04268	245.826	0.594361
537.0000	2.07304	245.936	0.595788
536.5000	2.07111	246.059	0.59739
536.0000	2.0572	246.179	0.598944
535.5000	2.08595	246.309	0.60063
535.0000	2.08564	246.441	0.602342
534.5000	2.12534	246.564	0.60393
534.0000	2.1591	246.699	0.605689
533.5000	2.1487	246.844	0.607566
533.0000	2.13581	246.978	0.609309
532.5000	2.14015	247.128	0.61125
532.0000	2.17818	247.277	0.613188
531.5000	2.1914	247.402	0.614806
531.0000	2.13663	247.549	0.616708
530.5000	2.13029	247.707	0.61876
530.0000	2.09734	247.855	0.620677
529.5000	2.09875	248.023	0.622862
529.0000	2.05615	248.203	0.625197
528.5000	1.99834	248.396	0.627699
528.0000	1.93971	248.593	0.630251
527.5000	1.90249	248.799	0.632924
527.0000	1.86861	249.011	0.635672
526.5000	1.86355	249.215	0.638319
526.0000	1.84656	249.435	0.641173
525.5000	1.80642	249.657	0.644055
525.0000	1.76081	249.872	0.646845
524.5000	1.7575	250.116	0.650007
524.0000	1.69846	250.374	0.65335
523.5000	1.59458	250.635	0.656731
523.0000	1.54625	250.902	0.660194
522.5000	1.49567	251.183	0.663842
522.0000	1.41664	251.468	0.667546
521.5000	1.35174	251.761	0.671341
521.0000	1.20439	252.052	0.675115
520.5000	1.12731	252.348	0.678952
520.0000	1.06235	252.663	0.683039
519.5000	0.923193	252.981	0.687158
519.0000	0.86368	253.321	0.691569
518.5000	0.782025	253.659	0.695952
518.0000	0.703054	253.994	0.700307
517.5000	0.638731	254.334	0.704718
517.0000	0.574339	254.679	0.709182
516.5000	0.460826	255.024	0.713661
516.0000	0.389184	255.375	0.718214
515.5000	0.299545	255.729	0.722802
515.0000	0.201633	256.133	0.728044
514.5000	0.134531	256.542	0.733343
514.0000	0.0663727	256.977	0.738996
513.5000	-0.0145676	257.424	0.744793
513.0000	-0.104011	257.898	0.750935
512.5000	-0.242016	258.39	0.757314
512.0000	-0.357508	258.877	0.76363
511.5000	-0.442585	259.349	0.769756
511.0000	-0.539275	259.825	0.775934
510.5000	-0.691498	260.304	0.782146
510.0000	-0.850411	260.79	0.788445
509.5000	-0.946959	261.262	0.794573
509.0000	-1.12916	261.725	0.800575
508.5000	-1.30181	262.185	0.806537
508.0000	-1.50542	262.649	0.812559
507.5000	-1.7144	263.119	0.818651
507.0000	-1.91055	263.579	0.824614
506.5000	-2.08586	264.044	0.830647
506.0000	-2.28922	264.506	0.83664
505.5000	-2.40983	264.976	0.842742
505.0000	-2.57899	265.473	0.84919
504.5000	-2.73488	265.994	0.855937
504.0000	-2.86005	266.543	0.863059
503.5000	-3.04956	267.118	0.870519
503.0000	-3.2453	267.716	0.878278
502.5000	-3.48409	268.321	0.886126
502.0000	-3.73832	268.934	0.894069
501.5000	-4.00126	269.543	0.901973
501.0000	-4.26939	270.149	0.909834
500.5000	-4.52664	270.739	0.917482
500.0000	-4.75637	271.316	0.924973
499.5000	-5.02392	271.877	0.932238
499.0000	-5.29018	272.423	0.939332
498.5000	-5.55406	272.939	0.94602
498.0000	-5.81618	273.417	0.952213
497.5000	-6.0712	273.836	0.957653
497.0000	-6.40706	274.197	0.962341
496.5000	-6.71045	274.477	0.965973
496.0000	-6.98477	274.667	0.968428
495.5000	-7.33224	274.772	0.969796
495.0000	-7.61905	274.842	0.970701
494.5000	-7.96435	274.907	0.971549
494.0000	-8.25006	275.007	0.972845
493.5000	-8.574	275.205	0.975404
493.0000	-8.86692	275.563	0.980055
492.5000	-9.1406	276.093	0.986931
492.0000	-9.42889	276.759	0.995568
491.5000	-9.69816	277.517	1.0054
491.0000	-9.9662	278.3	1.01502
490.5000	-10.2847	279.049	1.02345
490.0000	-10.5112	279.693	1.03062
489.5000	-10.7846	280.158	1.03579
489.0000	-11.0697	280.454	1.03908
488.5000	-11.3276	280.577	1.04045
488.0000	-11.6181	280.528	1.0399
487.5000	-11.8764	280.33	1.0377
487.0000	-12.2016	279.992	1.03394
486.5000	-12.4092	279.533	1.02884
486.0000	-12.6221	278.994	1.02283
485.5000	-12.8523	278.381	1.016
485.0000	-13.0853	277.753	1.00844
484.5000	-13.3403	277.162	1.00079
484.0000	-13.4694	276.663	0.994324
483.5000	-13.5864	276.294	0.989537
483.0000	-13.7427	276.097	0.986979
482.5000	-13.9333	276.106	0.987091
482.0000	-13.9772	276.324	0.989916
481.5000	-14.0045	276.713	0.994961
481.0000	-14.0754	277.229	1.00166
480.5000	-14.0902	277.821	1.00925
480.0000	-14.0453	278.429	1.01654
479.5000	-13.9326	278.998	1.02289
479.0000	-13.8779	279.469	1.02813
478.5000	-13.8586	279.821	1.03204
478.0000	-13.7245	280.014	1.0342
477.5000	-13.5855	280.025	1.03431
477.0000	-13.5708	279.88	1.0327
476.5000	-13.6039	279.612	1.02972
476.0000	-13.628	279.279	1.02601
475.5000	-13.5366	278.98	1.02269
475.0000	-13.5261	278.84	1.02112
474.5000	-13.4775	278.926	1.02208
474.0000	-13.3753	279.284	1.02607
473.5000	-13.2204	279.901	1.03293
473.0000	-13.1122	280.73	1.04214
472.5000	-12.9433	281.648	1.05233
472.0000	-12.8448	282.546	1.06226
471.5000	-12.7178	283.357	1.07122
471.0000	-12.5939	284.068	1.07906
470.5000	-12.5907	284.731	1.08636
470.0000	-12.4414	285.423	1.09397
469.5000	-12.3551	286.26	1.10317
469.0000	-12.2402	287.372	1.11535
468.5000	-12.0737	288.815	1.13111
468.0000	-11.9284	290.573	1.15026
467.5000	-11.8017	292.613	1.17237
467.0000	-11.5828	294.792	1.1959
466.5000	-11.3601	297.026	1.21989
466.0000	-11.0302	299.165	1.24275
465.5000	-10.7125	301.134	1.2637
465.0000	-10.337	302.926	1.28269
464.5000	-9.96276	304.554	1.29988
464.0000	-9.46864	306.064	1.31576
463.5000	-8.90885	307.563	1.33148
463.0000	-8.45731	309.127	1.34782
462.5000	-7.96226	310.78	1.36502
462.0000	-7.35735	312.486	1.38271
461.5000	-6.68065	314.211	1.40054
461.0000	-6.02316	315.933	1.41825
460.5000	-5.22926	317.581	1.43514
460.0000	-4.58054	319.147	1.45113
459.5000	-3.68002	320.63	1.46622
459.0000	-2.74434	322.084	1.48096
458.5000	-1.75085	323.539	1.49567
458.0000	-0.68148	325.046	1.51084
457.5000	0.463544	326.644	1.52688
457.0000	1.68211	328.286	1.54329
456.5000	3.06623	329.949	1.55984
456.0000	4.39552	331.578	1.57601
455.5000	5.70528	333.143	1.59147
455.0000	6.95961	334.596	1.60578
454.5000	8.27365	335.92	1.61876
454.0000	9.73935	337.146	1.63075
453.5000	11.1558	338.344	1.64243
453.0000	12.6132	339.557	1.65423
452.5000	14.0017	340.88	1.66706
452.0000	15.5466	342.441	1.68214
451.5000	17.1388	344.343	1.70043
451.0000	18.6892	346.607	1.72211
450.5000	20.312	349.22	1.74696
450.0000	21.9297	352.181	1.77493
449.5000	23.5375	355.408	1.80518
449.0000	25.0094	358.761	1.83635
448.5000	26.658	362.092	1.86705
448.0000	28.2229	365.32	1.89655
447.5000	29.6612	368.395	1.92443
447.0000	30.8783	371.317	1.95071
446.5000	32.0286	374.086	1.97543
446.0000	33.3194	376.719	1.99877
445.5000	34.4998	379.279	2.0213
445.0000	35.4628	381.774	2.04311
444.5000	36.1625	384.208	2.06424
444.0000	36.8813	386.592	2.08481
443.5000	37.3803	388.88	2.10442
443.0000	37.6022	391.048	2.12289
442.5000	37.7736	393.088	2.14017
442.0000	37.6219	394.973	2.15605
441.5000	37.2971	396.668	2.17026
441.0000	36.656	398.158	2.18269
440.5000	36.1367	399.383	2.19287
440.0000	35.3803	400.371	2.20105
439.5000	34.4153	401.123	2.20727
439.0000	33.4055	401.641	2.21154
438.5000	32.3164	401.92	2.21384
438.0000	31.0705	401.942	2.21402
437.5000	30.0884	401.72	2.21219
437.0000	28.7695	401.224	2.2081
436.5000	27.8068	400.442	2.20164
436.0000	26.788	399.345	2.19256
435.5000	25.6322	397.968	2.1811
435.0000	24.6263	396.309	2.16725
434.5000	23.4645	394.402	2.15125
434.0000	22.4798	392.28	2.13334
433.5000	21.6711	390.013	2.11409
433.0000	20.6653	387.618	2.09362
432.5000	19.6522	385.154	2.07242
432.0000	18.7891	382.635	2.0506
431.5000	18.2502	380.103	2.02852
431.0000	17.8142	377.607	2.0066
430.5000	17.3419	375.158	1.98494
430.0000	16.8645	372.748	1.9635
429.5000	16.5296	370.421	1.94267
429.0000	16.3228	368.169	1.92238
428.5000	16.1834	366.02	1.90292
428.0000	15.9655	363.975	1.88429
427.5000	15.8469	362.024	1.86642
427.0000	15.718	360.179	1.84945
426.5000	15.6753	358.453	1.83349
426.0000	15.7964	356.841	1.81853
425.5000	15.5387	355.32	1.80436
425.0000	15.3565	353.883	1.79091
424.5000	15.3612	352.52	1.77811
424.0000	15.3545	351.219	1.76586
423.5000	15.2787	349.957	1.75393
423.0000	15.2792	348.717	1.74219
422.5000	15.3901	347.492	1.73054
422.0000	15.5694	346.308	1.71924
421.5000	15.6938	345.158	1.70825
421.0000	15.7585	344.052	1.69764
420.5000	15.8994	343.032	1.68783
420.0000	16.0519	342.079	1.67865
419.5000	16.0191	341.192	1.67007
419.0000	16.0076	340.341	1.66184
418.5000	16.1026	339.488	1.65356
418.0000	16.2398	338.599	1.64492
417.5000	16.1548	337.645	1.63563
417.0000	16.131	336.591	1.62532
416.5000	16.2368	335.414	1.6138
416.0000	16.1364	334.126	1.60115
415.5000	16.1202	332.737	1.58746
415.0000	16.0183	331.255	1.5728
414.5000	15.9263	329.703	1.5574
414.0000	15.8201	328.081	1.54124
413.5000	15.7079	326.406	1.52449
413.0000	15.5837	324.697	1.50733
412.5000	15.557	322.941	1.48962
412.0000	15.3541	321.144	1.47143
411.5000	15.1444	319.338	1.45307
411.0000	14.9098	317.5	1.43431
410.5000	14.7382	315.654	1.41538
410.0000	14.4691	313.792	1.39621
409.5000	14.1316	311.923	1.37688
409.0000	13.8312	310.059	1.35753
408.5000	13.4641	308.215	1.33829
408.0000	13.1603	306.368	1.31896
407.5000	12.8114	304.537	1.2997
407.0000	12.5406	302.73	1.28062
406.5000	12.207	300.965	1.26191
406.0000	11.9365	299.242	1.24357
405.5000	11.6863	297.56	1.22561
405.0000	11.4775	295.919	1.20801
404.5000	11.3012	294.33	1.19092
404.0000	11.1224	292.806	1.17446
403.5000	10.961	291.331	1.15848
403.0000	10.8281	289.899	1.14292
402.5000	10.667	288.51	1.12778
402.0000	10.5065	287.166	1.11309
401.5000	10.373	285.873	1.09891
401.0000	10.1686	284.621	1.08515
400.5000	9.9887	283.423	1.07195
400.0000	9.85298	282.286	1.05938
399.5000	9.68321	281.214	1.04751
399.0000	9.58336	280.227	1.03655
398.5000	9.52653	279.321	1.02648
398.0000	9.47128	278.488	1.01708
397.5000	9.386	277.744	1.00811
397.0000	9.27551	277.065	0.999531
396.5000	9.24509	276.454	0.991608
396.0000	9.15027	275.892	0.984316
395.5000	9.06215	275.362	0.977445
395.0000	8.97846	274.855	0.970875
394.5000	8.92396	274.363	0.964482
394.0000	8.81715	273.878	0.958199
393.5000	8.802	273.397	0.951958
393.0000	8.72934	272.91	0.945649
392.5000	8.71663	272.431	0.939426
392.0000	8.60872	271.953	0.933236
391.5000	8.58444	271.495	0.927295
391.0000	8.42872	271.035	0.921325
390.5000	8.31775	270.58	0.915421
390.0000	8.21965	270.125	0.909519
389.5000	8.07813	269.672	0.903645
389.0000	7.89507	269.209	0.897641
388.5000	7.7695	268.748	0.891656
388.0000	7.55111	268.268	0.885441
387.5000	7.49543	267.786	0.879181
387.0000	7.32112	267.299	0.872863
386.5000	7.17468	266.8	0.866393
386.0000	7.07044	266.289	0.859762
385.5000	6.93339	265.774	0.853084
385.0000	6.79059	265.243	0.846202
384.5000	6.67614	264.699	0.839144
384.0000	6.44321	264.142	0.831922
383.5000	6.23203	263.564	0.824424
383.0000	6.04587	262.981	0.816861
382.5000	5.83816	262.378	0.809044
382.0000	5.67637	261.756	0.800973
381.5000	5.46252	261.115	0.792666
381.0000	5.31722	260.462	0.784194
380.5000	5.21077	259.787	0.775434
380.0000	5.11314	259.092	0.766423
379.5000	4.99794	258.37	0.757062
379.0000	4.88384	257.632	0.747488
378.5000	4.77236	256.876	0.737682
378.0000	4.71524	256.104	0.727665
377.5000	4.59573	255.31	0.717373
377.0000	4.44188	254.505	0.70693
376.5000	4.27774	253.691	0.696371
376.0000	4.17187	252.874	0.685779
375.5000	4.09898	252.041	0.674969
375.0000	4.02417	251.201	0.66408
374.5000	3.90172	250.36	0.653171
374.0000	3.86162	249.517	0.642234
373.5000	3.84324	248.683	0.631422
373.0000	3.85368	247.846	0.62056
372.5000	3.79977	247.02	0.609848
372.0000	3.71198	246.218	0.599446
371.5000	3.6372	245.432	0.589252
371.0000	3.63284	244.662	0.579268
370.5000	3.60055	243.911	0.56953
370.0000	3.53907	243.183	0.560083
369.5000	3.49311	242.475	0.550905
369.0000	3.42356	241.788	0.54199
368.5000	3.42134	241.115	0.533259
368.0000	3.34901	240.467	0.524863
367.5000	3.26359	239.841	0.516734
367.0000	3.24188	239.233	0.508858
366.5000	3.21492	238.65	0.501295
366.0000	3.2052	238.091	0.494039
365.5000	3.15128	237.546	0.486968
365.0000	3.12718	237.026	0.480229
364.5000	3.14825	236.523	0.473701
364.0000	3.16195	236.033	0.467342
363.5000	3.17329	235.563	0.461253
363.0000	3.15955	235.104	0.455301
362.5000	3.16654	234.657	0.449504
362.0000	3.14643	234.231	0.443978
361.5000	3.09458	233.81	0.438517
361.0000	3.09045	233.408	0.433304
360.5000	3.0827	233.021	0.428282
360.0000	3.02936	232.647	0.423427
359.5000	2.98372	232.294	0.418848
359.0000	3.00582	231.952	0.414416
358.5000	3.0162	231.621	0.410121
358.0000	3.07346	231.317	0.406177
357.5000	3.08259	231.026	0.402407
357.0000	3.0992	230.761	0.398965
356.5000	3.1932	230.517	0.39581
356.0000	3.24851	230.297	0.392958
355.5000	3.29168	230.109	0.390514
355.0000	3.39278	229.952	0.388479
354.5000	3.4842	229.824	0.386811
354.0000	3.56469	229.729	0.385584
353.5000	3.67447	229.668	0.384799
353.0000	3.77618	229.64	0.38443
352.5000	3.96302	229.648	0.384534
352.0000	4.15877	229.685	0.385021
351.5000	4.32295	229.764	0.38604
351.0000	4.5155	229.874	0.387466
350.5000	4.70944	230.017	0.389322
350.0000	4.89995	230.182	0.39146

##### Extended Information
[Comments]
Sample name	wt”bdm
Comment
User
Division
Company	MTA-SZBK

[Detailed Information]
Creation date	2/4/2016 7:04 PM

Data array type	Linear data array * 3
Horizontal axis	Wavelength [nm]
Vertical axis(1)	CD [mdeg]
Vertical axis(2)	HT [V]
Vertical axis(3)	Abs
Start	750 nm
End	350 nm
Data interval	0.5 nm
Data points	801     

[Measurement Information]
Instrument Name	J-815
Model Name	J-815
Serial No.	B042361168

Accessory	Standard
Accessory S/N	B042361168
  Cell Length	10 mm

Measurement date	2/4/2016 7:00 PM

Photometric Mode	CD, HT, Abs
Measure Range	750 - 350 nm
Data pitch	0.5 nm
Sensitivity	Standard
D.I.T.	2 sec
Bandwidth	3.00 nm
Start Mode	Immediately
Scanning Speed	100 nm/min
Baseline Correction	None
Shutter Control	Auto
CD Detector	PMT
PMT Voltage	Auto

